#Intensity_unit=cps
#Attenuator_coefficient=1.0000
10.0000,871.4850
10.0100,863.9300
10.0200,860.3000
10.0300,890.3300
10.0400,887.2700
10.0500,853.3300
10.0600,919.6775
10.0700,938.7800
10.0800,861.2950
10.0900,862.4100
10.1000,875.4325
10.1100,909.9275
10.1200,943.5575
10.1300,877.1775
10.1400,903.2200
10.1500,873.4600
10.1600,885.0875
10.1700,865.5500
10.1800,866.3475
10.1900,896.8075
10.2000,896.9875
10.2100,866.5500
10.2200,824.1950
10.2300,795.9250
10.2400,853.4975
10.2500,899.0900
10.2600,897.3225
10.2700,938.7300
10.2800,904.2900
10.2900,951.0375
10.3000,938.6600
10.3100,861.6725
10.3200,859.3300
10.3300,868.9925
10.3400,858.0150
10.3500,838.6975
10.3600,875.5850
10.3700,927.8800
10.3800,918.3775
10.3900,877.7950
10.4000,876.3225
10.4100,900.5675
10.4200,921.2525
10.4300,881.5425
10.4400,873.6825
10.4500,903.1600
10.4600,909.6475
10.4700,921.9200
10.4800,893.5425
10.4900,851.2900
10.5000,802.0200
10.5100,802.6175
10.5200,821.1775
10.5300,847.1150
10.5400,858.9150
10.5500,809.5050
10.5600,838.9625
10.5700,858.1725
10.5800,865.9325
10.5900,828.1175
10.6000,858.9025
10.6100,869.2600
10.6200,822.6150
10.6300,840.3475
10.6400,798.9475
10.6500,864.3175
10.6600,858.5500
10.6700,900.9950
10.6800,906.6675
10.6900,915.5250
10.7000,887.1525
10.7100,859.7325
10.7200,909.7450
10.7300,893.0850
10.7400,910.6250
10.7500,925.1125
10.7600,903.1175
10.7700,814.6700
10.7800,779.8050
10.7900,838.4050
10.8000,849.6050
10.8100,891.1225
10.8200,914.2825
10.8300,901.9925
10.8400,870.6650
10.8500,890.1225
10.8600,855.2325
10.8700,838.2825
10.8800,898.1600
10.8900,859.8350
10.9000,812.3750
10.9100,888.5475
10.9200,908.7700
10.9300,965.5125
10.9400,920.7675
10.9500,898.7375
10.9600,896.6675
10.9700,876.2525
10.9800,815.0300
10.9900,832.8900
11.0000,816.2800
11.0100,845.3575
11.0200,829.6300
11.0300,817.9400
11.0400,854.4600
11.0500,836.7525
11.0600,818.8100
11.0700,825.3775
11.0800,849.8825
11.0900,876.5375
11.1000,853.9075
11.1100,812.3275
11.1200,803.7700
11.1300,858.3425
11.1400,889.8175
11.1500,852.8375
11.1600,840.8850
11.1700,802.4325
11.1800,816.8850
11.1900,840.2100
11.2000,849.1050
11.2100,818.2700
11.2200,850.8125
11.2300,873.9575
11.2400,882.4275
11.2500,880.4550
11.2600,845.4675
11.2700,860.1350
11.2800,840.3325
11.2900,868.2750
11.3000,922.1600
11.3100,861.1000
11.3200,841.3925
11.3300,822.7925
11.3400,848.6675
11.3500,833.2750
11.3600,821.4075
11.3700,874.3900
11.3800,886.1950
11.3900,883.8075
11.4000,874.7575
11.4100,907.6175
11.4200,899.0550
11.4300,882.3950
11.4400,805.8225
11.4500,781.9275
11.4600,825.6025
11.4700,858.9725
11.4800,854.7900
11.4900,824.8725
11.5000,831.3775
11.5100,827.6475
11.5200,784.0400
11.5300,816.4325
11.5400,899.9850
11.5500,919.0075
11.5600,883.1300
11.5700,819.9700
11.5800,761.8325
11.5900,826.9650
11.6000,879.6275
11.6100,934.7625
11.6200,923.5400
11.6300,891.7375
11.6400,864.0675
11.6500,837.4125
11.6600,841.8000
11.6700,848.9750
11.6800,872.5525
11.6900,840.0350
11.7000,816.4350
11.7100,824.5925
11.7200,849.1750
11.7300,887.0775
11.7400,851.1750
11.7500,882.6625
11.7600,861.9225
11.7700,893.1500
11.7800,827.0725
11.7900,816.1375
11.8000,805.4575
11.8100,786.5300
11.8200,805.7275
11.8300,835.1800
11.8400,828.8150
11.8500,823.8725
11.8600,781.4325
11.8700,778.9175
11.8800,807.9050
11.8900,791.0225
11.9000,761.5800
11.9100,753.8800
11.9200,797.8875
11.9300,798.3175
11.9400,782.7575
11.9500,791.1200
11.9600,776.6600
11.9700,798.3300
11.9800,797.7825
11.9900,838.2825
12.0000,835.5750
12.0100,855.5050
12.0200,801.8325
12.0300,776.1575
12.0400,836.9725
12.0500,794.6900
12.0600,750.1650
12.0700,840.0225
12.0800,887.6100
12.0900,862.9775
12.1000,837.3600
12.1100,791.9850
12.1200,830.1700
12.1300,820.7250
12.1400,855.1950
12.1500,778.0650
12.1600,798.4875
12.1700,847.8800
12.1800,804.4900
12.1900,826.2700
12.2000,762.0125
12.2100,752.1500
12.2200,775.2550
12.2300,815.6025
12.2400,864.3900
12.2500,851.4475
12.2600,830.2625
12.2700,821.2025
12.2800,825.4625
12.2900,791.1825
12.3000,736.9575
12.3100,773.0175
12.3200,816.0325
12.3300,766.1400
12.3400,756.0550
12.3500,740.3450
12.3600,750.2625
12.3700,747.8975
12.3800,765.6775
12.3900,791.7150
12.4000,812.9425
12.4100,860.0475
12.4200,834.7725
12.4300,821.2500
12.4400,852.4800
12.4500,862.7050
12.4600,855.2225
12.4700,880.3550
12.4800,859.6625
12.4900,880.3225
12.5000,848.9025
12.5100,877.7425
12.5200,894.7500
12.5300,899.3600
12.5400,924.2200
12.5500,924.6200
12.5600,912.5800
12.5700,907.3125
12.5800,920.0925
12.5900,909.9150
12.6000,861.0750
12.6100,796.3925
12.6200,799.4050
12.6300,827.4275
12.6400,790.5225
12.6500,777.3250
12.6600,760.6325
12.6700,778.0350
12.6800,852.7375
12.6900,840.6550
12.7000,846.6650
12.7100,820.6875
12.7200,829.3125
12.7300,833.3325
12.7400,825.3525
12.7500,871.1850
12.7600,856.7650
12.7700,844.6900
12.7800,840.6800
12.7900,826.7400
12.8000,802.1300
12.8100,907.9200
12.8200,851.9550
12.8300,864.3950
12.8400,799.2975
12.8500,795.8550
12.8600,871.3050
12.8700,855.6900
12.8800,822.9275
12.8900,806.1225
12.9000,792.7950
12.9100,761.0375
12.9200,753.3325
12.9300,787.5200
12.9400,825.5750
12.9500,788.6825
12.9600,758.2925
12.9700,821.5375
12.9800,771.8375
12.9900,727.1325
13.0000,701.6700
13.0100,730.6850
13.0200,758.3075
13.0300,781.6275
13.0400,734.4275
13.0500,688.6750
13.0600,753.0450
13.0700,726.4050
13.0800,689.8850
13.0900,748.4300
13.1000,803.0975
13.1100,834.1375
13.1200,801.0150
13.1300,808.1800
13.1400,776.9950
13.1500,751.1025
13.1600,793.3300
13.1700,770.3950
13.1800,726.3425
13.1900,745.1300
13.2000,732.6475
13.2100,737.0025
13.2200,693.5150
13.2300,705.8100
13.2400,728.8100
13.2500,759.1100
13.2600,818.1850
13.2700,828.1850
13.2800,780.3600
13.2900,753.8125
13.3000,775.6925
13.3100,749.9525
13.3200,722.0375
13.3300,716.6675
13.3400,749.9825
13.3500,749.7550
13.3600,710.8350
13.3700,692.3275
13.3800,730.8975
13.3900,682.0275
13.4000,719.4925
13.4100,782.5850
13.4200,778.8200
13.4300,735.1175
13.4400,720.7875
13.4500,737.8100
13.4600,778.9300
13.4700,726.4750
13.4800,726.9800
13.4900,786.6225
13.5000,767.8300
13.5100,746.5300
13.5200,715.4750
13.5300,719.3200
13.5400,725.8625
13.5500,746.8875
13.5600,735.6525
13.5700,651.7525
13.5800,656.9350
13.5900,681.7900
13.6000,648.8800
13.6100,714.7050
13.6200,767.6725
13.6300,759.0700
13.6400,715.6500
13.6500,665.6750
13.6600,680.9300
13.6700,662.4225
13.6800,665.8600
13.6900,682.5175
13.7000,694.1725
13.7100,719.1700
13.7200,751.6525
13.7300,710.0625
13.7400,658.4000
13.7500,711.4950
13.7600,728.3500
13.7700,706.7475
13.7800,714.9300
13.7900,687.6750
13.8000,654.3025
13.8100,656.6000
13.8200,699.7025
13.8300,753.0075
13.8400,754.2775
13.8500,727.7150
13.8600,705.1525
13.8700,722.2550
13.8800,744.8250
13.8900,730.2450
13.9000,683.8525
13.9100,714.3850
13.9200,705.3600
13.9300,699.1300
13.9400,746.7500
13.9500,741.2050
13.9600,723.5050
13.9700,710.1775
13.9800,721.3875
13.9900,765.8975
14.0000,784.9000
14.0100,764.6325
14.0200,729.7550
14.0300,697.9975
14.0400,711.9875
14.0500,690.7050
14.0600,740.9900
14.0700,699.9500
14.0800,686.4100
14.0900,728.9500
14.1000,711.7100
14.1100,680.5550
14.1200,709.7675
14.1300,718.4800
14.1400,704.5400
14.1500,707.2700
14.1600,705.1550
14.1700,725.1150
14.1800,759.9350
14.1900,774.8325
14.2000,733.2000
14.2100,711.8400
14.2200,755.8150
14.2300,792.6100
14.2400,773.5150
14.2500,715.2150
14.2600,711.0925
14.2700,699.8500
14.2800,686.1325
14.2900,755.2975
14.3000,728.2025
14.3100,742.5950
14.3200,720.7650
14.3300,685.1425
14.3400,726.8550
14.3500,720.3975
14.3600,707.6125
14.3700,711.4350
14.3800,720.4825
14.3900,678.0975
14.4000,652.8625
14.4100,657.1325
14.4200,702.7575
14.4300,696.2625
14.4400,648.7175
14.4500,630.9625
14.4600,684.4700
14.4700,697.2000
14.4800,695.6975
14.4900,713.2075
14.5000,644.4475
14.5100,634.5650
14.5200,624.4750
14.5300,637.8675
14.5400,674.9125
14.5500,653.7400
14.5600,647.0500
14.5700,689.9200
14.5800,723.0925
14.5900,725.3100
14.6000,692.8775
14.6100,670.6350
14.6200,711.1100
14.6300,727.6625
14.6400,670.6150
14.6500,637.3325
14.6600,663.6475
14.6700,702.2975
14.6800,711.0050
14.6900,749.5475
14.7000,722.5000
14.7100,721.9150
14.7200,695.1875
14.7300,675.3625
14.7400,710.4075
14.7500,694.2525
14.7600,682.3125
14.7700,681.0225
14.7800,680.0000
14.7900,652.3050
14.8000,637.6950
14.8100,662.0125
14.8200,691.7525
14.8300,690.7975
14.8400,732.6400
14.8500,739.5525
14.8600,751.6925
14.8700,769.1725
14.8800,800.8275
14.8900,795.0175
14.9000,814.1175
14.9100,801.5250
14.9200,851.6625
14.9300,905.1000
14.9400,928.0675
14.9500,915.1075
14.9600,879.3500
14.9700,905.3325
14.9800,891.5175
14.9900,888.0200
15.0000,845.6875
15.0100,841.4675
15.0200,897.5650
15.0300,938.1050
15.0400,930.8375
15.0500,934.6300
15.0600,962.5750
15.0700,948.5225
15.0800,945.6825
15.0900,974.7700
15.1000,916.9175
15.1100,910.3100
15.1200,905.3625
15.1300,874.2225
15.1400,888.0000
15.1500,888.7975
15.1600,820.6525
15.1700,810.1300
15.1800,788.7125
15.1900,762.1675
15.2000,774.5150
15.2100,787.7925
15.2200,756.5900
15.2300,711.0700
15.2400,692.2200
15.2500,678.8925
15.2600,644.4775
15.2700,672.1375
15.2800,706.6275
15.2900,671.2700
15.3000,623.4550
15.3100,638.7300
15.3200,631.2525
15.3300,692.8075
15.3400,696.9350
15.3500,660.1775
15.3600,643.3975
15.3700,642.1975
15.3800,654.3175
15.3900,673.1675
15.4000,633.9500
15.4100,612.1900
15.4200,598.0100
15.4300,622.8050
15.4400,635.6300
15.4500,631.1500
15.4600,623.4550
15.4700,633.0750
15.4800,657.4200
15.4900,666.6675
15.5000,662.3200
15.5100,649.1425
15.5200,610.7875
15.5300,641.0225
15.5400,632.0125
15.5500,634.9725
15.5600,635.8575
15.5700,617.0400
15.5800,629.4225
15.5900,640.0000
15.6000,640.0000
15.6100,627.0875
15.6200,635.0525
15.6300,664.8175
15.6400,674.5200
15.6500,641.1675
15.6600,625.4750
15.6700,650.2125
15.6800,678.3025
15.6900,667.4375
15.7000,637.4550
15.7100,635.1975
15.7200,650.6525
15.7300,680.0825
15.7400,657.1775
15.7500,645.1650
15.7600,637.2625
15.7700,621.5175
15.7800,625.1425
15.7900,655.4025
15.8000,640.3900
15.8100,623.3325
15.8200,602.2225
15.8300,587.8900
15.8400,633.0225
15.8500,592.6350
15.8600,540.7150
15.8700,566.9525
15.8800,609.7575
15.8900,631.7225
15.9000,651.3325
15.9100,674.6525
15.9200,672.8775
15.9300,620.7025
15.9400,607.9450
15.9500,629.1800
15.9600,642.9175
15.9700,627.9350
15.9800,573.0000
15.9900,604.8325
16.0000,621.3225
16.0100,601.7075
16.0200,613.2375
16.0300,658.5125
16.0400,704.8100
16.0500,680.7575
16.0600,615.3975
16.0700,602.3675
16.0800,626.4750
16.0900,622.2650
16.1000,644.1650
16.1100,657.1725
16.1200,626.6650
16.1300,597.7025
16.1400,600.2375
16.1500,614.8475
16.1600,603.6525
16.1700,595.3750
16.1800,608.9025
16.1900,590.1800
16.2000,614.0400
16.2100,625.7675
16.2200,628.8550
16.2300,630.5775
16.2400,622.6125
16.2500,615.9500
16.2600,619.4025
16.2700,645.5675
16.2800,657.9800
16.2900,626.4100
16.3000,622.7875
16.3100,625.2800
16.3200,615.9775
16.3300,631.4150
16.3400,635.3050
16.3500,656.0650
16.3600,671.3300
16.3700,649.9900
16.3800,638.6650
16.3900,630.0150
16.4000,643.2825
16.4100,606.8450
16.4200,603.1950
16.4300,591.5125
16.4400,587.8800
16.4500,639.6925
16.4600,656.7525
16.4700,624.2525
16.4800,602.7100
16.4900,611.8600
16.5000,594.3325
16.5100,586.5275
16.5200,618.9475
16.5300,632.7300
16.5400,633.9325
16.5500,607.2025
16.5600,610.2125
16.5700,607.0650
16.5800,610.9550
16.5900,582.2575
16.6000,572.8725
16.6100,573.0025
16.6200,594.5300
16.6300,620.5625
16.6400,603.8750
16.6500,617.2100
16.6600,654.1400
16.6700,625.9375
16.6800,600.5425
16.6900,576.2375
16.7000,579.8675
16.7100,585.0800
16.7200,567.0200
16.7300,569.6350
16.7400,578.5925
16.7500,608.8450
16.7600,647.2875
16.7700,633.1375
16.7800,626.7500
16.7900,640.4950
16.8000,593.6050
16.8100,562.3975
16.8200,580.0250
16.8300,607.1575
16.8400,597.1475
16.8500,587.6100
16.8600,589.5325
16.8700,599.9525
16.8800,621.3750
16.8900,665.9825
16.9000,678.2000
16.9100,664.7775
16.9200,612.3675
16.9300,578.9900
16.9400,604.0500
16.9500,635.0500
16.9600,625.9950
16.9700,600.6150
16.9800,587.7075
16.9900,575.8425
17.0000,586.8375
17.0100,633.6375
17.0200,618.9350
17.0300,571.7500
17.0400,580.4875
17.0500,581.7850
17.0600,555.1350
17.0700,537.7650
17.0800,559.2900
17.0900,546.6650
17.1000,534.7975
17.1100,568.8400
17.1200,582.9750
17.1300,583.6875
17.1400,592.1900
17.1500,598.5050
17.1600,603.6750
17.1700,612.1725
17.1800,583.6750
17.1900,567.6525
17.2000,582.1525
17.2100,573.8800
17.2200,554.2100
17.2300,581.2900
17.2400,600.9000
17.2500,606.0600
17.2600,602.1400
17.2700,606.3250
17.2800,614.5650
17.2900,631.7150
17.3000,651.8075
17.3100,629.8650
17.3200,642.4575
17.3300,637.5825
17.3400,586.6150
17.3500,590.0250
17.3600,611.7950
17.3700,604.3700
17.3800,584.1350
17.3900,566.1800
17.4000,554.6425
17.4100,546.4325
17.4200,570.0600
17.4300,612.9100
17.4400,622.8900
17.4500,591.8125
17.4600,554.0400
17.4700,532.9150
17.4800,544.3550
17.4900,574.1350
17.5000,583.1375
17.5100,569.4250
17.5200,547.6775
17.5300,534.9075
17.5400,542.1125
17.5500,571.0475
17.5600,614.5250
17.5700,613.9225
17.5800,553.1425
17.5900,530.6275
17.6000,562.5075
17.6100,599.1500
17.6200,613.1900
17.6300,589.1600
17.6400,561.3275
17.6500,558.5300
17.6600,546.0325
17.6700,576.6550
17.6800,626.9025
17.6900,624.7150
17.7000,616.6675
17.7100,596.0350
17.7200,557.7775
17.7300,567.4400
17.7400,612.1750
17.7500,635.1325
17.7600,626.3325
17.7700,601.3900
17.7800,596.8175
17.7900,596.5250
17.8000,576.4025
17.8100,565.0300
17.8200,583.6200
17.8300,581.3750
17.8400,597.1525
17.8500,621.5550
17.8600,577.9125
17.8700,565.2325
17.8800,579.9375
17.8900,568.2925
17.9000,578.4350
17.9100,576.5750
17.9200,546.6125
17.9300,551.7175
17.9400,583.3525
17.9500,581.6650
17.9600,588.3075
17.9700,611.6625
17.9800,616.6550
17.9900,596.7850
18.0000,583.2700
18.0100,623.1025
18.0200,636.8175
18.0300,603.5050
18.0400,596.5500
18.0500,593.5075
18.0600,611.2125
18.0700,643.3325
18.0800,597.4575
18.0900,550.0000
18.1000,563.0725
18.1100,597.8800
18.1200,605.3350
18.1300,590.0000
18.1400,591.6250
18.1500,590.0875
18.1600,607.7350
18.1700,597.6300
18.1800,574.6475
18.1900,594.7375
18.2000,614.6175
18.2100,615.4000
18.2200,584.0450
18.2300,587.4125
18.2400,605.3175
18.2500,587.0625
18.2600,589.4550
18.2700,604.9300
18.2800,598.6950
18.2900,578.8575
18.3000,612.7675
18.3100,639.5225
18.3200,622.8450
18.3300,623.8350
18.3400,633.8825
18.3500,681.9225
18.3600,760.4425
18.3700,829.2600
18.3800,873.1975
18.3900,978.8675
18.4000,1158.7450
18.4100,1332.6050
18.4200,1434.5925
18.4300,1533.9875
18.4400,1603.5500
18.4500,1657.5800
18.4600,1776.1675
18.4700,1804.0800
18.4800,1757.3700
18.4900,1754.4025
18.5000,1757.1525
18.5100,1677.4900
18.5200,1562.5225
18.5300,1475.9050
18.5400,1358.2975
18.5500,1263.9250
18.5600,1161.3525
18.5700,1012.4375
18.5800,881.6950
18.5900,821.2400
18.6000,820.5775
18.6100,787.4900
18.6200,752.1125
18.6300,729.9925
18.6400,681.2425
18.6500,642.1325
18.6600,627.6125
18.6700,612.1475
18.6800,627.7300
18.6900,635.3075
18.7000,578.8350
18.7100,551.6425
18.7200,565.5125
18.7300,573.4375
18.7400,569.1275
18.7500,544.8225
18.7600,582.3400
18.7700,608.8575
18.7800,559.9925
18.7900,541.4625
18.8000,548.1825
18.8100,525.9575
18.8200,538.7575
18.8300,576.9600
18.8400,581.1900
18.8500,555.3400
18.8600,563.0125
18.8700,580.5900
18.8800,570.2150
18.8900,577.5050
18.9000,571.4550
18.9100,586.4050
18.9200,604.7825
18.9300,611.0100
18.9400,605.1025
18.9500,595.7725
18.9600,557.2250
18.9700,503.8600
18.9800,513.3325
18.9900,506.1625
19.0000,526.7325
19.0100,579.5325
19.0200,589.5300
19.0300,551.5025
19.0400,521.8700
19.0500,556.0575
19.0600,586.6675
19.0700,552.6900
19.0800,530.6950
19.0900,561.9225
19.1000,541.6850
19.1100,509.6350
19.1200,500.0000
19.1300,504.2050
19.1400,515.5975
19.1500,566.6525
19.1600,590.3950
19.1700,546.9650
19.1800,576.1325
19.1900,597.7800
19.2000,574.7550
19.2100,557.4850
19.2200,559.1900
19.2300,532.6500
19.2400,512.9700
19.2500,519.7950
19.2600,510.0000
19.2700,529.1775
19.2800,553.9325
19.2900,534.9825
19.3000,509.2450
19.3100,508.7750
19.3200,508.5175
19.3300,507.5125
19.3400,538.2225
19.3500,557.2975
19.3600,560.0775
19.3700,588.8525
19.3800,593.8150
19.3900,549.2650
19.4000,533.3325
19.4100,545.3700
19.4200,567.3375
19.4300,564.0050
19.4400,543.3475
19.4500,553.2550
19.4600,582.0075
19.4700,558.8250
19.4800,539.8775
19.4900,571.8675
19.5000,590.0000
19.5100,578.1725
19.5200,554.7525
19.5300,544.0475
19.5400,533.4650
19.5500,522.0275
19.5600,522.6050
19.5700,535.7675
19.5800,524.0450
19.5900,480.7425
19.6000,490.8900
19.6100,524.9500
19.6200,544.6225
19.6300,537.6650
19.6400,524.6175
19.6500,548.4500
19.6600,567.9850
19.6700,534.3950
19.6800,522.5500
19.6900,545.7475
19.7000,575.3975
19.7100,550.5200
19.7200,501.9475
19.7300,502.2725
19.7400,542.1550
19.7500,560.4400
19.7600,559.1325
19.7700,562.9600
19.7800,593.7525
19.7900,567.5375
19.8000,518.3175
19.8100,501.7900
19.8200,486.0725
19.8300,530.0000
19.8400,528.7625
19.8500,530.3700
19.8600,516.9525
19.8700,505.4700
19.8800,535.9700
19.8900,529.4575
19.9000,541.2225
19.9100,544.5525
19.9200,563.7175
19.9300,593.3325
19.9400,598.1875
19.9500,629.6725
19.9600,644.6200
19.9700,608.4425
19.9800,622.1300
19.9900,629.6125
20.0000,641.8700
20.0100,639.3175
20.0200,633.2800
20.0300,599.7575
20.0400,604.0400
20.0500,616.2100
20.0600,573.7125
20.0700,522.3650
20.0800,551.4500
20.0900,589.6000
20.1000,576.6675
20.1100,575.4925
20.1200,558.1150
20.1300,531.1675
20.1400,526.3375
20.1500,512.1700
20.1600,520.4500
20.1700,535.3650
20.1800,534.7600
20.1900,540.7675
20.2000,512.9700
20.2100,501.3775
20.2200,518.9600
20.2300,531.3450
20.2400,536.3875
20.2500,526.9250
20.2600,543.2550
20.2700,530.9925
20.2800,518.8675
20.2900,513.2775
20.3000,517.9450
20.3100,544.5025
20.3200,535.3650
20.3300,506.7225
20.3400,524.4725
20.3500,528.8700
20.3600,517.7725
20.3700,500.0025
20.3800,487.7450
20.3900,543.2150
20.4000,596.6675
20.4100,587.8550
20.4200,576.5950
20.4300,607.5450
20.4400,668.5000
20.4500,736.3775
20.4600,776.5375
20.4700,793.2600
20.4800,826.0300
20.4900,936.2750
20.5000,1081.4100
20.5100,1172.3225
20.5200,1251.8250
20.5300,1275.5950
20.5400,1304.3700
20.5500,1377.4750
20.5600,1356.0450
20.5700,1278.7925
20.5800,1274.8475
20.5900,1260.9000
20.6000,1246.7725
20.6100,1158.7450
20.6200,1061.9525
20.6300,1006.9325
20.6400,943.0675
20.6500,877.8475
20.6600,780.2150
20.6700,734.5900
20.6800,725.8550
20.6900,716.6675
20.7000,690.8750
20.7100,661.1225
20.7200,759.2700
20.7300,864.5850
20.7400,907.7375
20.7500,889.1750
20.7600,940.5125
20.7700,1040.4400
20.7800,1163.6500
20.7900,1291.7150
20.8000,1331.5400
20.8100,1408.7275
20.8200,1408.5950
20.8300,1343.3325
20.8400,1336.3500
20.8500,1286.1600
20.8600,1187.8025
20.8700,1141.3525
20.8800,1129.7500
20.8900,1076.8675
20.9000,961.4900
20.9100,884.5075
20.9200,844.7450
20.9300,801.9525
20.9400,779.4100
20.9500,695.8550
20.9600,645.5850
20.9700,632.4625
20.9800,624.5025
20.9900,554.6200
21.0000,528.1725
21.0100,562.4050
21.0200,561.4050
21.0300,512.8675
21.0400,495.2075
21.0500,522.3475
21.0600,532.8900
21.0700,527.1000
21.0800,550.7550
21.0900,573.5500
21.1000,543.7375
21.1100,550.5375
21.1200,555.4175
21.1300,583.8850
21.1400,571.1200
21.1500,572.3425
21.1600,611.4950
21.1700,609.4175
21.1800,631.3050
21.1900,669.0875
21.2000,667.5775
21.2100,664.5550
21.2200,670.8150
21.2300,732.0825
21.2400,771.8700
21.2500,855.2600
21.2600,918.1525
21.2700,998.0925
21.2800,1089.6075
21.2900,1229.7200
21.3000,1381.7175
21.3100,1461.3000
21.3200,1597.4825
21.3300,1698.2600
21.3400,1798.6625
21.3500,2018.3375
21.3600,2160.2750
21.3700,2137.2250
21.3800,2224.2800
21.3900,2380.7175
21.4000,2440.0000
21.4100,2482.0575
21.4200,2682.0725
21.4300,2936.4550
21.4400,3010.7800
21.4500,3044.9075
21.4600,3179.3575
21.4700,3246.1900
21.4800,3360.2475
21.4900,3457.6100
21.5000,3534.2475
21.5100,3582.4900
21.5200,3500.8575
21.5300,3444.3300
21.5400,3282.3050
21.5500,3013.0075
21.5600,2847.9700
21.5700,2695.9575
21.5800,2475.3050
21.5900,2241.5575
21.6000,1975.9000
21.6100,1710.3350
21.6200,1463.0125
21.6300,1290.0375
21.6400,1114.4800
21.6500,1011.3475
21.6600,945.4550
21.6700,832.0525
21.6800,755.7075
21.6900,742.8175
21.7000,670.3750
21.7100,639.8075
21.7200,610.5750
21.7300,635.8000
21.7400,665.7925
21.7500,624.5800
21.7600,600.4925
21.7700,585.3850
21.7800,620.9675
21.7900,690.7000
21.8000,732.7600
21.8100,776.8700
21.8200,876.3425
21.8300,971.2425
21.8400,1103.5050
21.8500,1253.9775
21.8600,1353.8425
21.8700,1449.8050
21.8800,1583.3425
21.8900,1656.2025
21.9000,1860.9475
21.9100,1972.2025
21.9200,1974.8775
21.9300,1959.5850
21.9400,1980.9025
21.9500,1996.8200
21.9600,1899.6175
21.9700,1854.3150
21.9800,1852.0775
21.9900,1755.2350
22.0000,1617.9325
22.0100,1484.8825
22.0200,1245.2675
22.0300,1054.6925
22.0400,1016.3175
22.0500,1000.1375
22.0600,830.4875
22.0700,744.8625
22.0800,686.1625
22.0900,618.8575
22.1000,558.5250
22.1100,533.8400
22.1200,512.7275
22.1300,524.0125
22.1400,521.2525
22.1500,495.2800
22.1600,481.3700
22.1700,498.6625
22.1800,496.0000
22.1900,509.3250
22.2000,516.0300
22.2100,500.6600
22.2200,510.5575
22.2300,547.1975
22.2400,579.9250
22.2500,601.7725
22.2600,641.1925
22.2700,669.6625
22.2800,720.2675
22.2900,766.5300
22.3000,787.0025
22.3100,809.6925
22.3200,776.2100
22.3300,766.2900
22.3400,789.5750
22.3500,768.9650
22.3600,738.1900
22.3700,690.3800
22.3800,698.6525
22.3900,645.5275
22.4000,560.5525
22.4100,531.5075
22.4200,530.6100
22.4300,550.0475
22.4400,488.7975
22.4500,485.1300
22.4600,489.1600
22.4700,474.7500
22.4800,499.0325
22.4900,500.5800
22.5000,447.2875
22.5100,414.4225
22.5200,468.4100
22.5300,471.4600
22.5400,443.2100
22.5500,428.3875
22.5600,428.6725
22.5700,394.5475
22.5800,422.3250
22.5900,455.0700
22.6000,476.0750
22.6100,453.8750
22.6200,442.2225
22.6300,455.5475
22.6400,465.0150
22.6500,459.9550
22.6600,474.4850
22.6700,456.8150
22.6800,423.8750
22.6900,430.4325
22.7000,448.9300
22.7100,435.8725
22.7200,399.8500
22.7300,422.4725
22.7400,449.1300
22.7500,423.0075
22.7600,402.2925
22.7700,401.3275
22.7800,431.3025
22.7900,460.7675
22.8000,475.1725
22.8100,431.5225
22.8200,438.4850
22.8300,427.9900
22.8400,418.1675
22.8500,424.6775
22.8600,408.3850
22.8700,384.4300
22.8800,410.9800
22.8900,420.0775
22.9000,437.5775
22.9100,426.2250
22.9200,441.8950
22.9300,435.2425
22.9400,446.1925
22.9500,440.5025
22.9600,428.4975
22.9700,454.8650
22.9800,428.4400
22.9900,449.8425
23.0000,391.2575
23.0100,429.1325
23.0200,483.0350
23.0300,456.8400
23.0400,439.8100
23.0500,455.9825
23.0600,423.3425
23.0700,383.9725
23.0800,412.1925
23.0900,425.3575
23.1000,415.8000
23.1100,415.6025
23.1200,452.9050
23.1300,443.6100
23.1400,395.7650
23.1500,379.7125
23.1600,470.8375
23.1700,473.7575
23.1800,452.5075
23.1900,448.3100
23.2000,454.2875
23.2100,414.5500
23.2200,422.5275
23.2300,413.0625
23.2400,393.0300
23.2500,437.6300
23.2600,419.2150
23.2700,419.5750
23.2800,460.8550
23.2900,418.2075
23.3000,432.6775
23.3100,453.7125
23.3200,455.9125
23.3300,452.6225
23.3400,471.8450
23.3500,456.6750
23.3600,434.0375
23.3700,466.3025
23.3800,467.6750
23.3900,500.4600
23.4000,476.3100
23.4100,487.4975
23.4200,602.4475
23.4300,574.6925
23.4400,656.1500
23.4500,784.5450
23.4600,954.3325
23.4700,1102.3525
23.4800,1316.1325
23.4900,1480.6775
23.5000,1687.5150
23.5100,1903.2650
23.5200,2179.5700
23.5300,2512.4225
23.5400,2800.3275
23.5500,2982.2625
23.5600,3217.9400
23.5700,3458.3400
23.5800,3510.3900
23.5900,3533.4350
23.6000,3397.5350
23.6100,3333.9475
23.6200,3240.6350
23.6300,2881.7450
23.6400,2578.0025
23.6500,2388.1450
23.6600,2048.2675
23.6700,1931.8650
23.6800,1616.2625
23.6900,1420.9300
23.7000,1272.4200
23.7100,1103.1075
23.7200,948.6725
23.7300,889.3350
23.7400,803.1700
23.7500,754.0100
23.7600,645.0850
23.7700,631.1075
23.7800,678.9375
23.7900,627.1800
23.8000,632.8275
23.8100,634.1925
23.8200,727.1625
23.8300,732.8425
23.8400,725.9375
23.8500,712.8175
23.8600,663.0950
23.8700,658.3525
23.8800,637.1325
23.8900,639.1900
23.9000,584.6975
23.9100,601.7575
23.9200,579.5550
23.9300,567.6200
23.9400,486.8850
23.9500,492.5750
23.9600,528.3050
23.9700,502.4950
23.9800,485.6575
23.9900,419.1825
24.0000,410.9000
24.0100,476.0700
24.0200,468.6300
24.0300,500.1950
24.0400,501.8025
24.0500,477.6100
24.0600,490.7300
24.0700,445.9325
24.0800,434.7800
24.0900,457.6825
24.1000,417.3700
24.1100,433.8050
24.1200,502.4825
24.1300,484.3175
24.1400,439.5050
24.1500,430.0000
24.1600,428.8800
24.1700,405.2500
24.1800,376.6675
24.1900,377.1225
24.2000,387.1150
24.2100,398.7250
24.2200,442.6125
24.2300,425.5325
24.2400,399.3050
24.2500,383.7425
24.2600,393.4675
24.2700,396.4050
24.2800,387.6825
24.2900,330.0000
24.3000,331.1125
24.3100,360.1200
24.3200,362.6225
24.3300,343.6800
24.3400,353.7850
24.3500,366.8875
24.3600,373.6575
24.3700,382.4925
24.3800,357.5900
24.3900,386.8675
24.4000,393.7225
24.4100,405.5300
24.4200,365.6525
24.4300,331.0750
24.4400,369.0425
24.4500,332.9950
24.4600,321.1450
24.4700,366.6675
24.4800,366.8950
24.4900,378.0700
24.5000,439.2875
24.5100,407.1475
24.5200,429.8675
24.5300,422.7000
24.5400,389.5125
24.5500,364.1475
24.5600,409.2775
24.5700,366.6125
24.5800,363.8375
24.5900,396.3800
24.6000,376.3500
24.6100,353.5450
24.6200,370.2400
24.6300,389.3300
24.6400,330.2075
24.6500,350.4475
24.6600,396.5775
24.6700,386.7200
24.6800,393.2850
24.6900,386.5800
24.7000,373.3525
24.7100,376.6675
24.7200,376.8575
24.7300,423.2550
24.7400,399.9500
24.7500,379.9475
24.7600,350.0275
24.7700,380.0000
24.7800,373.3375
24.7900,366.6750
24.8000,363.3400
24.8100,330.1000
24.8200,333.3200
24.8300,379.7875
24.8400,363.4225
24.8500,353.3950
24.8600,316.9200
24.8700,362.9725
24.8800,379.8575
24.8900,406.4175
24.9000,390.1675
24.9100,353.7325
24.9200,386.2775
24.9300,409.7100
24.9400,396.8425
24.9500,396.6675
24.9600,449.2100
24.9700,400.7800
24.9800,409.8350
24.9900,406.7250
25.0000,396.8475
25.0100,403.2075
25.0200,455.6225
25.0300,466.4625
25.0400,440.5625
25.0500,413.9175
25.0600,367.7275
25.0700,408.9800
25.0800,403.4950
25.0900,442.3300
25.1000,420.6050
25.1100,420.0000
25.1200,377.8575
25.1300,379.9050
25.1400,367.0550
25.1500,389.3050
25.1600,383.5375
25.1700,376.8750
25.1800,408.9275
25.1900,426.1175
25.2000,404.1225
25.2100,409.7700
25.2200,435.7225
25.2300,436.6675
25.2400,423.8250
25.2500,481.0675
25.2600,531.4075
25.2700,510.9175
25.2800,532.3975
25.2900,574.8925
25.3000,551.1125
25.3100,537.2325
25.3200,574.9350
25.3300,586.2250
25.3400,573.9325
25.3500,640.1375
25.3600,617.9050
25.3700,610.3150
25.3800,594.1350
25.3900,580.6500
25.4000,529.3150
25.4100,507.6750
25.4200,471.8775
25.4300,460.5200
25.4400,441.0550
25.4500,414.7625
25.4600,384.9650
25.4700,392.7825
25.4800,371.3075
25.4900,432.8825
25.5000,417.8175
25.5100,391.5575
25.5200,399.4075
25.5300,371.7975
25.5400,370.0000
25.5500,398.1525
25.5600,353.1175
25.5700,384.3525
25.5800,367.9450
25.5900,357.3150
25.6000,350.4375
25.6100,350.0000
25.6200,337.5625
25.6300,345.9875
25.6400,355.9800
25.6500,347.3625
25.6600,374.5575
25.6700,441.6900
25.6800,384.7925
25.6900,339.8150
25.7000,330.4900
25.7100,345.4300
25.7200,331.2500
25.7300,326.9200
25.7400,366.6775
25.7500,357.7000
25.7600,365.8850
25.7700,320.6175
25.7800,322.8000
25.7900,366.2375
25.8000,333.2575
25.8100,336.1175
25.8200,333.6100
25.8300,290.5775
25.8400,320.2300
25.8500,356.8675
25.8600,341.7250
25.8700,346.0875
25.8800,389.2375
25.8900,378.1425
25.9000,370.5950
25.9100,373.0325
25.9200,376.3625
25.9300,352.4475
25.9400,368.1475
25.9500,321.6475
25.9600,355.9200
25.9700,338.8825
25.9800,339.6800
25.9900,340.0000
26.0000,364.0700
26.0100,381.6975
26.0200,356.3025
26.0300,374.3400
26.0400,373.6675
26.0500,358.3550
26.0600,356.6675
26.0700,350.6875
26.0800,367.9250
26.0900,414.7725
26.1000,366.3200
26.1100,386.8150
26.1200,387.0225
26.1300,371.7950
26.1400,384.8575
26.1500,413.3875
26.1600,404.8025
26.1700,364.8075
26.1800,389.6100
26.1900,440.6650
26.2000,399.3775
26.2100,411.0500
26.2200,442.8350
26.2300,484.9850
26.2400,510.6150
26.2500,486.8525
26.2600,483.3325
26.2700,515.6400
26.2800,528.8025
26.2900,486.0250
26.3000,482.9300
26.3100,468.7025
26.3200,454.9725
26.3300,517.5950
26.3400,555.8500
26.3500,545.4225
26.3600,473.4225
26.3700,495.3475
26.3800,491.2775
26.3900,510.3350
26.4000,452.3850
26.4100,420.1350
26.4200,445.6375
26.4300,461.5775
26.4400,414.1750
26.4500,438.4450
26.4600,437.5600
26.4700,428.0150
26.4800,415.1425
26.4900,407.5775
26.5000,380.7850
26.5100,388.1575
26.5200,369.9075
26.5300,409.6800
26.5400,436.7225
26.5500,377.0300
26.5600,360.9475
26.5700,322.8600
26.5800,325.2300
26.5900,346.6275
26.6000,367.0925
26.6100,378.5400
26.6200,351.5650
26.6300,326.7800
26.6400,331.8475
26.6500,333.3325
26.6600,310.6700
26.6700,349.1200
26.6800,348.1850
26.6900,326.8925
26.7000,328.9775
26.7100,335.6400
26.7200,359.2025
26.7300,380.2175
26.7400,363.6525
26.7500,360.0000
26.7600,331.9375
26.7700,365.9175
26.7800,381.7350
26.7900,341.3600
26.8000,341.7200
26.8100,334.9550
26.8200,352.8650
26.8300,345.5175
26.8400,362.8275
26.8500,355.5375
26.8600,361.6725
26.8700,324.4575
26.8800,341.6350
26.8900,368.8375
26.9000,345.6450
26.9100,334.4675
26.9200,352.6775
26.9300,353.9050
26.9400,391.9475
26.9500,405.5100
26.9600,409.4200
26.9700,382.5000
26.9800,362.9300
26.9900,362.7450
27.0000,355.1075
27.0100,386.2050
27.0200,431.6475
27.0300,377.1175
27.0400,396.1100
27.0500,400.6050
27.0600,350.9325
27.0700,361.7875
27.0800,407.4750
27.0900,381.3325
27.1000,348.8950
27.1100,332.4825
27.1200,348.9700
27.1300,364.1625
27.1400,326.0975
27.1500,346.3875
27.1600,380.3250
27.1700,359.7000
27.1800,366.8025
27.1900,388.8375
27.2000,342.2525
27.2100,297.7700
27.2200,330.2475
27.2300,374.8450
27.2400,351.2000
27.2500,370.0850
27.2600,390.0300
27.2700,358.6275
27.2800,382.0050
27.2900,448.6175
27.3000,420.7450
27.3100,378.0925
27.3200,420.4700
27.3300,486.4075
27.3400,526.5100
27.3500,559.8175
27.3600,579.8950
27.3700,556.9025
27.3800,600.1650
27.3900,626.5225
27.4000,630.0000
27.4100,616.8375
27.4200,634.3700
27.4300,713.5525
27.4400,720.2125
27.4500,648.5075
27.4600,630.0000
27.4700,577.6775
27.4800,550.2650
27.4900,557.1100
27.5000,500.0125
27.5100,480.7275
27.5200,466.9850
27.5300,439.9325
27.5400,381.3850
27.5500,397.8025
27.5600,398.8900
27.5700,375.9525
27.5800,372.5875
27.5900,360.4125
27.6000,351.5050
27.6100,334.5275
27.6200,350.6075
27.6300,400.4125
27.6400,392.7675
27.6500,350.7150
27.6600,381.0450
27.6700,372.8325
27.6800,376.9050
27.6900,369.7700
27.7000,376.8850
27.7100,364.6900
27.7200,342.1550
27.7300,351.9450
27.7400,349.0350
27.7500,372.0775
27.7600,367.3075
27.7700,353.1900
27.7800,360.1325
27.7900,368.3950
27.8000,342.1950
27.8100,333.3325
27.8200,350.9900
27.8300,376.8250
27.8400,383.3325
27.8500,378.3050
27.8600,381.6900
27.8700,410.9325
27.8800,392.4325
27.8900,358.2975
27.9000,347.5000
27.9100,384.1400
27.9200,381.6925
27.9300,356.7250
27.9400,352.4900
27.9500,370.7450
27.9600,381.6350
27.9700,368.4400
27.9800,378.2100
27.9900,380.8575
28.0000,380.0000
28.0100,397.3000
28.0200,361.3650
28.0300,336.8025
28.0400,350.5775
28.0500,339.4425
28.0600,333.3325
28.0700,350.5200
28.0800,373.8350
28.0900,377.5500
28.1000,393.7975
28.1100,402.4450
28.1200,391.1250
28.1300,393.9850
28.1400,374.7375
28.1500,361.8000
28.1600,394.0350
28.1700,416.3800
28.1800,400.5950
28.1900,417.5625
28.2000,426.6675
28.2100,438.7550
28.2200,426.4275
28.2300,422.4125
28.2400,420.9225
28.2500,456.1050
28.2600,498.8500
28.2700,502.7950
28.2800,483.2075
28.2900,462.2900
28.3000,468.6350
28.3100,506.8050
28.3200,474.6250
28.3300,456.6675
28.3400,509.0875
28.3500,510.9600
28.3600,498.5775
28.3700,501.4150
28.3800,543.6575
28.3900,569.4775
28.4000,599.3675
28.4100,636.0050
28.4200,675.0025
28.4300,759.7825
28.4400,825.3400
28.4500,870.5925
28.4600,942.0975
28.4700,1004.2325
28.4800,1043.4525
28.4900,1046.3050
28.5000,1083.1100
28.5100,1132.7200
28.5200,1209.6975
28.5300,1276.3075
28.5400,1370.1925
28.5500,1426.5975
28.5600,1534.2625
28.5700,1590.5925
28.5800,1622.1675
28.5900,1735.2225
28.6000,1817.0075
28.6100,1904.9525
28.6200,2033.5875
28.6300,2141.2050
28.6400,2248.2775
28.6500,2322.4250
28.6600,2314.7350
28.6700,2337.7450
28.6800,2142.5150
28.6900,1870.4275
28.7000,1794.5725
28.7100,1782.9650
28.7200,1783.5100
28.7300,1777.5550
28.7400,1664.1150
28.7500,1572.4250
28.7600,1551.0625
28.7700,1577.2075
28.7800,1635.2925
28.7900,1686.0725
28.8000,1754.2225
28.8100,1931.1925
28.8200,2172.3775
28.8300,2336.6300
28.8400,2507.0825
28.8500,2689.0325
28.8600,2932.8525
28.8700,3074.8650
28.8800,3142.5200
28.8900,3058.2800
28.9000,3017.8300
28.9100,3052.3200
28.9200,3084.4825
28.9300,3255.7150
28.9400,3352.2200
28.9500,3320.0575
28.9600,3098.3100
28.9700,2839.4950
28.9800,2678.1925
28.9900,2415.8350
29.0000,2184.2275
29.0100,2068.2600
29.0200,1991.5950
29.0300,1887.5525
29.0400,1791.7950
29.0500,1715.1050
29.0600,1692.1900
29.0700,1660.5300
29.0800,1536.3075
29.0900,1499.6325
29.1000,1575.3650
29.1100,1712.2775
29.1200,1992.7050
29.1300,2310.8725
29.1400,2754.8875
29.1500,3337.2675
29.1600,4152.4075
29.1700,5049.0775
29.1800,6244.5200
29.1900,7541.1375
29.2000,8927.0900
29.2100,10416.9750
29.2200,11569.4175
29.2300,12478.1475
29.2400,13617.7250
29.2500,14504.3850
29.2600,15161.9725
29.2700,15731.5850
29.2800,16075.5300
29.2900,15541.9950
29.3000,14546.0675
29.3100,13753.3750
29.3200,12659.9475
29.3300,11442.9175
29.3400,10534.8900
29.3500,9412.8425
29.3600,8312.9150
29.3700,7139.3725
29.3800,6036.4175
29.3900,5111.1150
29.4000,4151.7175
29.4100,3394.3900
29.4200,2808.7575
29.4300,2235.0350
29.4400,1852.9875
29.4500,1551.0900
29.4600,1302.9800
29.4700,1166.3575
29.4800,1082.2300
29.4900,980.7325
29.5000,874.5200
29.5100,861.4925
29.5200,849.8050
29.5300,781.7450
29.5400,768.5475
29.5500,780.0000
29.5600,726.5575
29.5700,693.3325
29.5800,668.7325
29.5900,655.3800
29.6000,658.7125
29.6100,660.0000
29.6200,637.5650
29.6300,627.4075
29.6400,632.0350
29.6500,651.6150
29.6600,655.2175
29.6700,599.3475
29.6800,554.5275
29.6900,595.1650
29.7000,586.3050
29.7100,557.9850
29.7200,556.6675
29.7300,550.6375
29.7400,526.5925
29.7500,539.3950
29.7600,550.6600
29.7700,562.6600
29.7800,573.3325
29.7900,549.4050
29.8000,545.2800
29.8100,575.2075
29.8200,554.2525
29.8300,508.1850
29.8400,497.2950
29.8500,541.5350
29.8600,562.1000
29.8700,534.9675
29.8800,520.0000
29.8900,569.1800
29.9000,607.2625
29.9100,608.0375
29.9200,639.9725
29.9300,706.3775
29.9400,736.6675
29.9500,767.8850
29.9600,856.2475
29.9700,942.2500
29.9800,989.4325
29.9900,1077.0700
30.0000,1141.6275
30.0100,1221.6000
30.0200,1284.9275
30.0300,1355.0875
30.0400,1421.1975
30.0500,1521.3425
30.0600,1656.3600
30.0700,1809.7925
30.0800,1969.5725
30.0900,1975.9200
30.1000,1895.1125
30.1100,1801.7800
30.1200,1728.5600
30.1300,1711.9025
30.1400,1804.5525
30.1500,1823.9925
30.1600,1790.4575
30.1700,1800.9025
30.1800,1785.8800
30.1900,1762.4525
30.2000,1713.3250
30.2100,1632.9575
30.2200,1638.0050
30.2300,1606.2025
30.2400,1560.4150
30.2500,1606.3675
30.2600,1653.0775
30.2700,1696.9150
30.2800,1667.4425
30.2900,1615.8925
30.3000,1630.4350
30.3100,1609.5675
30.3200,1535.5425
30.3300,1585.0850
30.3400,1701.3550
30.3500,1876.4825
30.3600,2141.3675
30.3700,2610.5625
30.3800,3194.8325
30.3900,3626.7025
30.4000,3968.9225
30.4100,4464.9100
30.4200,4812.7100
30.4300,5150.7450
30.4400,5463.4300
30.4500,5535.4525
30.4600,5521.8500
30.4700,5733.2100
30.4800,5896.1875
30.4900,5698.0525
30.5000,5333.4775
30.5100,4874.3400
30.5200,4535.6550
30.5300,4319.1250
30.5400,3982.2000
30.5500,3641.5925
30.5600,3427.2475
30.5700,3251.7850
30.5800,2984.7950
30.5900,2645.0675
30.6000,2356.8925
30.6100,2159.9050
30.6200,1975.0050
30.6300,1747.4750
30.6400,1553.8150
30.6500,1455.1025
30.6600,1370.1000
30.6700,1299.0750
30.6800,1227.1275
30.6900,1074.9475
30.7000,957.0675
30.7100,898.3650
30.7200,847.4625
30.7300,814.3125
30.7400,759.9700
30.7500,683.3625
30.7600,608.4925
30.7700,599.3200
30.7800,637.1725
30.7900,606.8200
30.8000,544.2475
30.8100,540.5525
30.8200,568.7000
30.8300,569.7000
30.8400,549.7175
30.8500,541.7100
30.8600,568.9625
30.8700,595.0400
30.8800,581.3375
30.8900,585.3725
30.9000,603.3325
30.9100,582.9900
30.9200,553.1775
30.9300,531.5025
30.9400,520.0000
30.9500,509.8925
30.9600,474.7700
30.9700,473.5100
30.9800,518.4650
30.9900,513.2150
31.0000,459.9250
31.0100,418.3150
31.0200,431.6575
31.0300,450.0200
31.0400,428.3750
31.0500,400.0850
31.0600,368.4350
31.0700,384.7375
31.0800,423.2675
31.0900,411.8775
31.1000,406.4925
31.1100,406.8625
31.1200,385.1350
31.1300,378.3025
31.1400,391.4400
31.1500,409.8600
31.1600,426.4400
31.1700,420.4025
31.1800,422.8175
31.1900,427.1225
31.2000,384.1050
31.2100,403.5225
31.2200,456.5600
31.2300,468.0525
31.2400,438.0800
31.2500,391.8525
31.2600,413.9100
31.2700,454.5325
31.2800,439.5150
31.2900,400.4325
31.3000,407.5100
31.3100,423.4875
31.3200,413.6525
31.3300,395.5800
31.3400,384.9150
31.3500,391.4025
31.3600,401.3950
31.3700,395.6525
31.3800,372.3375
31.3900,388.2250
31.4000,421.5650
31.4100,390.5150
31.4200,343.9725
31.4300,367.5975
31.4400,433.1000
31.4500,433.8400
31.4600,395.3500
31.4700,383.8125
31.4800,370.4900
31.4900,363.3325
31.5000,377.1850
31.5100,394.8700
31.5200,385.9300
31.5300,382.5200
31.5400,388.7475
31.5500,383.3325
31.5600,381.8100
31.5700,375.4375
31.5800,398.8400
31.5900,421.2125
31.6000,390.0275
31.6100,383.5900
31.6200,398.4925
31.6300,393.6575
31.6400,402.0175
31.6500,407.6700
31.6600,401.1575
31.6700,391.7250
31.6800,373.3325
31.6900,367.3775
31.7000,379.3225
31.7100,394.4325
31.7200,384.8150
31.7300,377.7975
31.7400,374.0450
31.7500,375.9675
31.7600,362.2550
31.7700,352.2625
31.7800,359.8525
31.7900,381.0550
31.8000,374.9875
31.8100,357.0850
31.8200,357.6975
31.8300,370.5925
31.8400,378.5500
31.8500,396.9225
31.8600,407.4475
31.8700,365.0450
31.8800,339.5450
31.8900,366.3125
31.9000,403.8350
31.9100,429.0750
31.9200,421.4325
31.9300,364.8000
31.9400,340.0000
31.9500,328.6350
31.9600,330.3475
31.9700,353.3325
31.9800,357.5700
31.9900,366.1525
32.0000,355.9275
32.0100,342.2850
32.0200,348.5975
32.0300,362.0600
32.0400,377.7450
32.0500,360.2400
32.0600,353.6250
32.0700,378.6125
32.0800,390.2950
32.0900,371.1325
32.1000,363.3325
32.1100,375.7400
32.1200,401.5875
32.1300,391.3625
32.1400,343.5525
32.1500,322.7350
32.1600,329.3975
32.1700,346.9600
32.1800,366.6675
32.1900,362.5950
32.2000,340.4075
32.2100,312.6100
32.2200,316.1150
32.2300,336.7350
32.2400,349.3550
32.2500,350.6500
32.2600,331.9350
32.2700,331.3850
32.2800,370.0025
32.2900,368.0175
32.3000,359.3000
32.3100,373.3325
32.3200,372.0100
32.3300,370.0000
32.3400,363.4100
32.3500,350.7025
32.3600,357.1700
32.3700,372.0225
32.3800,363.4600
32.3900,361.1650
32.4000,366.8200
32.4100,354.0675
32.4200,350.0000
32.4300,343.5275
32.4400,341.0850
32.4500,370.0975
32.4600,399.2400
32.4700,396.9125
32.4800,399.4825
32.4900,403.3725
32.5000,385.6025
32.5100,407.6425
32.5200,430.1700
32.5300,411.1450
32.5400,372.3250
32.5500,389.4350
32.5600,350.2750
32.5700,338.4325
32.5800,363.3325
32.5900,374.6100
32.6000,400.8350
32.6100,392.1200
32.6200,360.4025
32.6300,365.4250
32.6400,367.0525
32.6500,378.2825
32.6600,396.5450
32.6700,397.3150
32.6800,373.6875
32.6900,378.7725
32.7000,365.6475
32.7100,341.7800
32.7200,343.0875
32.7300,351.4850
32.7400,369.4450
32.7500,419.3975
32.7600,394.5800
32.7700,367.3025
32.7800,357.8700
32.7900,358.8000
32.8000,354.2700
32.8100,359.5675
32.8200,376.6675
32.8300,379.0475
32.8400,370.2650
32.8500,358.5200
32.8600,365.8075
32.8700,331.7375
32.8800,331.9750
32.8900,367.0500
32.9000,380.0000
32.9100,375.3200
32.9200,370.1675
32.9300,362.6900
32.9400,343.6400
32.9500,347.3900
32.9600,342.7250
32.9700,363.2050
32.9800,361.2725
32.9900,376.8950
33.0000,385.4150
33.0100,372.0900
33.0200,363.3325
33.0300,370.1650
33.0400,379.9250
33.0500,367.6650
33.0600,354.4050
33.0700,348.8725
33.0800,352.2950
33.0900,357.7175
33.1000,364.5975
33.1100,394.4100
33.1200,375.5250
33.1300,365.5650
33.1400,379.9975
33.1500,387.7750
33.1600,385.5800
33.1700,387.6925
33.1800,415.5000
33.1900,428.8625
33.2000,434.4275
33.2100,413.7300
33.2200,378.6525
33.2300,417.4650
33.2400,440.1600
33.2500,422.3400
33.2600,417.6500
33.2700,404.0550
33.2800,371.7050
33.2900,425.8375
33.3000,465.8500
33.3100,450.0000
33.3200,439.3600
33.3300,421.9725
33.3400,442.8625
33.3500,469.6700
33.3600,485.4400
33.3700,478.4400
33.3800,460.6725
33.3900,464.1150
33.4000,438.7525
33.4100,438.1300
33.4200,417.3225
33.4300,410.1300
33.4400,445.1650
33.4500,455.6350
33.4600,459.5000
33.4700,460.0050
33.4800,431.0225
33.4900,438.4350
33.5000,451.0175
33.5100,456.3775
33.5200,459.2825
33.5300,459.0900
33.5400,498.1325
33.5500,546.0275
33.5600,537.9525
33.5700,494.6650
33.5800,516.3250
33.5900,521.3450
33.6000,511.7075
33.6100,509.8950
33.6200,552.0825
33.6300,607.4925
33.6400,623.5150
33.6500,606.8550
33.6600,651.6550
33.6700,740.4550
33.6800,830.8025
33.6900,999.7625
33.7000,1239.5775
33.7100,1535.2950
33.7200,1940.4200
33.7300,2314.2175
33.7400,2844.5850
33.7500,3545.5000
33.7600,4249.2625
33.7700,4830.9150
33.7800,5153.7375
33.7900,5229.9975
33.8000,5379.2450
33.8100,5482.6400
33.8200,5674.8550
33.8300,5874.1325
33.8400,5795.6200
33.8500,5380.9250
33.8600,4839.6850
33.8700,4335.6175
33.8800,3742.7850
33.8900,3459.0350
33.9000,3279.4525
33.9100,2960.7875
33.9200,2600.8125
33.9300,2343.7100
33.9400,2103.2400
33.9500,1688.9125
33.9600,1341.0650
33.9700,1113.3325
33.9800,1013.3075
33.9900,891.9150
34.0000,824.4350
34.0100,813.3100
34.0200,828.7650
34.0300,754.1200
34.0400,714.3975
34.0500,703.8600
34.0600,636.5025
34.0700,644.9800
34.0800,688.8400
34.0900,664.9325
34.1000,661.7300
34.1100,660.6325
34.1200,645.9125
34.1300,653.3325
34.1400,643.9350
34.1500,605.5950
34.1600,577.5800
34.1700,590.0000
34.1800,586.6225
34.1900,601.0725
34.2000,664.9425
34.2100,645.0200
34.2200,659.1650
34.2300,661.6550
34.2400,683.2975
34.2500,709.1175
34.2600,735.7300
34.2700,752.6550
34.2800,699.5300
34.2900,629.3200
34.3000,598.5300
34.3100,576.5775
34.3200,594.7550
34.3300,621.6125
34.3400,613.8075
34.3500,581.3450
34.3600,615.4525
34.3700,644.9250
34.3800,647.6200
34.3900,637.6275
34.4000,623.6925
34.4100,610.4075
34.4200,638.8175
34.4300,666.8200
34.4400,691.4375
34.4500,666.4375
34.4600,696.7750
34.4700,766.4175
34.4800,768.9825
34.4900,770.1375
34.5000,866.8700
34.5100,893.8050
34.5200,909.7000
34.5300,928.3150
34.5400,952.1475
34.5500,925.4050
34.5600,879.9325
34.5700,865.6150
34.5800,890.7200
34.5900,861.8525
34.6000,836.2850
34.6100,844.4600
34.6200,824.9350
34.6300,772.3725
34.6400,739.8875
34.6500,737.2100
34.6600,635.3775
34.6700,600.9025
34.6800,567.0725
34.6900,520.0000
34.7000,529.9825
34.7100,553.1650
34.7200,494.8350
34.7300,468.2725
34.7400,476.1200
34.7500,426.1575
34.7600,395.7425
34.7700,423.7400
34.7800,395.8425
34.7900,387.5975
34.8000,409.7850
34.8100,381.2775
34.8200,375.3825
34.8300,384.6950
34.8400,387.9650
34.8500,371.2175
34.8600,339.3600
34.8700,347.3175
34.8800,338.0025
34.8900,344.0000
34.9000,345.3400
34.9100,346.6075
34.9200,370.0425
34.9300,354.7000
34.9400,349.9325
34.9500,360.0800
34.9600,347.3150
34.9700,356.4575
34.9800,385.9050
34.9900,388.3375
35.0000,359.0775
35.0100,383.9700
35.0200,387.9325
35.0300,392.7025
35.0400,384.9750
35.0500,367.7150
35.0600,389.7825
35.0700,400.2300
35.0800,381.1025
35.0900,358.5150
35.1000,374.6400
35.1100,400.8375
35.1200,356.9575
35.1300,342.7275
35.1400,347.2425
35.1500,381.2025
35.1600,390.2575
35.1700,407.2625
35.1800,411.7800
35.1900,425.3200
35.2000,443.5250
35.2100,402.1975
35.2200,346.4975
35.2300,332.3250
35.2400,345.0700
35.2500,361.4000
35.2600,393.1150
35.2700,361.1425
35.2800,360.4100
35.2900,340.1925
35.3000,388.8725
35.3100,380.5275
35.3200,368.9025
35.3300,382.2250
35.3400,387.7925
35.3500,356.6900
35.3600,344.3925
35.3700,369.4000
35.3800,377.3475
35.3900,344.5000
35.4000,338.7250
35.4100,360.2250
35.4200,330.9400
35.4300,358.1200
35.4400,378.5700
35.4500,357.0225
35.4600,376.6675
35.4700,369.8825
35.4800,341.1250
35.4900,386.4350
35.5000,399.7325
35.5100,376.9275
35.5200,362.5475
35.5300,375.1450
35.5400,371.7150
35.5500,397.9900
35.5600,393.1650
35.5700,433.4825
35.5800,455.8075
35.5900,476.4025
35.6000,510.8825
35.6100,493.2525
35.6200,481.5800
35.6300,534.3450
35.6400,553.7575
35.6500,528.6125
35.6600,597.1475
35.6700,583.3100
35.6800,595.8050
35.6900,551.8725
35.7000,568.9200
35.7100,603.3325
35.7200,607.4800
35.7300,644.7900
35.7400,713.0200
35.7500,699.5200
35.7600,761.8025
35.7700,786.7875
35.7800,871.1025
35.7900,861.1025
35.8000,901.9100
35.8100,985.2650
35.8200,1023.9275
35.8300,1054.3375
35.8400,1079.4500
35.8500,1048.6150
35.8600,1009.8425
35.8700,954.8500
35.8800,892.8725
35.8900,854.9275
35.9000,778.7525
35.9100,807.1350
35.9200,738.7650
35.9300,724.2675
35.9400,689.4400
35.9500,728.8825
35.9600,689.8275
35.9700,636.4025
35.9800,608.4100
35.9900,592.7175
36.0000,567.6500
36.0100,604.2900
36.0200,640.5425
36.0300,668.8450
36.0400,658.4675
36.0500,651.9925
36.0600,696.3575
36.0700,721.5025
36.0800,732.2150
36.0900,720.3675
36.1000,692.2475
36.1100,651.5450
36.1200,613.6350
36.1300,643.6950
36.1400,647.7425
36.1500,647.0475
36.1600,567.0200
36.1700,570.7025
36.1800,571.7800
36.1900,525.4950
36.2000,491.4850
36.2100,532.9925
36.2200,522.1950
36.2300,451.9850
36.2400,441.3375
36.2500,450.6750
36.2600,423.7000
36.2700,391.7575
36.2800,345.0425
36.2900,330.6450
36.3000,339.5475
36.3100,367.6200
36.3200,374.1450
36.3300,350.6250
36.3400,355.4250
36.3500,340.2525
36.3600,313.9750
36.3700,352.1200
36.3800,337.2925
36.3900,314.1800
36.4000,357.5550
36.4100,365.1975
36.4200,351.4575
36.4300,366.3775
36.4400,364.1925
36.4500,367.6500
36.4600,307.5125
36.4700,318.6225
36.4800,344.9850
36.4900,397.5275
36.5000,368.9100
36.5100,358.2850
36.5200,372.6550
36.5300,328.5225
36.5400,347.8975
36.5500,328.8000
36.5600,393.8500
36.5700,401.0225
36.5800,413.5875
36.5900,415.9150
36.6000,403.6875
36.6100,365.9275
36.6200,356.4225
36.6300,353.5750
36.6400,357.6225
36.6500,369.7625
36.6600,368.3050
36.6700,390.6950
36.6800,398.8525
36.6900,382.6525
36.7000,370.4150
36.7100,330.0000
36.7200,331.5400
36.7300,356.8125
36.7400,403.6550
36.7500,356.5975
36.7600,307.0875
36.7700,313.5425
36.7800,318.3125
36.7900,343.7400
36.8000,352.4100
36.8100,390.7950
36.8200,403.5300
36.8300,404.5350
36.8400,367.8950
36.8500,333.7125
36.8600,339.2525
36.8700,326.6675
36.8800,328.4875
36.8900,360.5400
36.9000,368.7600
36.9100,343.6925
36.9200,291.2075
36.9300,314.3550
36.9400,334.6750
36.9500,362.1500
36.9600,402.8450
36.9700,390.9225
36.9800,343.9675
36.9900,358.6950
37.0000,400.6150
37.0100,413.1825
37.0200,407.9150
37.0300,364.0675
37.0400,377.8350
37.0500,332.9800
37.0600,399.8600
37.0700,395.7050
37.0800,373.1975
37.0900,369.7350
37.1000,364.3750
37.1100,391.2800
37.1200,422.0775
37.1300,389.5075
37.1400,376.3050
37.1500,368.3250
37.1600,413.6825
37.1700,422.8775
37.1800,409.2200
37.1900,387.5400
37.2000,412.3725
37.2100,383.1250
37.2200,375.9525
37.2300,352.9350
37.2400,340.4875
37.2500,356.2850
37.2600,344.4475
37.2700,383.9675
37.2800,406.6675
37.2900,408.1250
37.3000,463.9175
37.3100,486.7475
37.3200,489.2900
37.3300,460.0775
37.3400,465.4850
37.3500,559.7850
37.3600,551.1125
37.3700,602.9975
37.3800,587.0550
37.3900,607.8550
37.4000,669.8800
37.4100,664.7250
37.4200,745.6150
37.4300,881.2800
37.4400,960.4600
37.4500,990.8775
37.4600,1050.6025
37.4700,1095.5375
37.4800,1260.5425
37.4900,1304.9100
37.5000,1438.5600
37.5100,1607.9200
37.5200,1727.9025
37.5300,1854.0575
37.5400,1934.7275
37.5500,2100.7675
37.5600,2199.0925
37.5700,2070.5675
37.5800,2159.9450
37.5900,2148.8700
37.6000,1919.6775
37.6100,1843.0275
37.6200,1756.5525
37.6300,1716.7750
37.6400,1766.5600
37.6500,1693.3450
37.6600,1710.0000
37.6700,1719.9950
37.6800,1460.3375
37.6900,1390.1400
37.7000,1320.1875
37.7100,1256.8800
37.7200,1259.9875
37.7300,1226.8250
37.7400,1236.6125
37.7500,1216.7900
37.7600,1279.5700
37.7700,1339.5500
37.7800,1382.9800
37.7900,1508.8775
37.8000,1741.1050
37.8100,1763.1275
37.8200,1855.6475
37.8300,1965.3900
37.8400,1973.2525
37.8500,2124.6775
37.8600,2343.6625
37.8700,2517.5150
37.8800,2595.5150
37.8900,2852.5825
37.9000,2814.0450
37.9100,2734.7000
37.9200,2608.9175
37.9300,2462.7050
37.9400,2182.0850
37.9500,1934.8850
37.9600,1688.3875
37.9700,1647.4425
37.9800,1591.2375
37.9900,1599.7750
38.0000,1541.3925
38.0100,1523.7325
38.0200,1380.2700
38.0300,1181.7175
38.0400,1082.5075
38.0500,927.5025
38.0600,829.3050
38.0700,697.0625
38.0800,641.5275
38.0900,633.5300
38.1000,652.7325
38.1100,646.8700
38.1200,659.5825
38.1300,689.0375
38.1400,686.7750
38.1500,722.1100
38.1600,739.4325
38.1700,762.5225
38.1800,834.0700
38.1900,949.1225
38.2000,1017.5475
38.2100,1141.9225
38.2200,1419.1975
38.2300,1647.8725
38.2400,1778.3325
38.2500,1994.5000
38.2600,2207.9575
38.2700,2344.4675
38.2800,2251.0250
38.2900,2383.8600
38.3000,2431.4475
38.3100,2471.5650
38.3200,2371.4525
38.3300,2169.4100
38.3400,2016.9300
38.3500,2000.4700
38.3600,1885.7050
38.3700,1756.2700
38.3800,1730.9775
38.3900,1657.1325
38.4000,1526.6975
38.4100,1383.9625
38.4200,1297.6300
38.4300,1176.4425
38.4400,1008.9950
38.4500,785.4775
38.4600,773.3325
38.4700,767.0325
38.4800,647.0400
38.4900,592.8125
38.5000,571.1375
38.5100,507.1725
38.5200,497.0550
38.5300,493.5300
38.5400,502.7375
38.5500,500.2000
38.5600,453.0450
38.5700,406.2075
38.5800,390.8300
38.5900,436.8550
38.6000,405.6650
38.6100,409.5725
38.6200,425.5850
38.6300,442.2400
38.6400,402.8700
38.6500,387.5575
38.6600,405.3150
38.6700,397.3500
38.6800,368.7325
38.6900,360.4625
38.7000,412.6875
38.7100,376.4050
38.7200,385.7125
38.7300,386.6675
38.7400,374.3050
38.7500,391.8625
38.7600,405.6775
38.7700,366.5775
38.7800,381.8225
38.7900,398.7300
38.8000,403.0775
38.8100,449.4600
38.8200,431.8225
38.8300,445.3525
38.8400,440.5300
38.8500,507.4575
38.8600,537.8450
38.8700,598.1775
38.8800,548.2575
38.8900,570.8500
38.9000,603.8875
38.9100,570.0300
38.9200,584.9725
38.9300,641.5450
38.9400,628.3875
38.9500,565.7775
38.9600,520.4500
38.9700,534.9075
38.9800,557.9325
38.9900,538.7500
39.0000,557.9025
39.0100,547.8750
39.0200,501.2300
39.0300,511.8025
39.0400,513.3325
39.0500,458.9250
39.0600,486.5575
39.0700,499.0550
39.0800,448.7250
39.0900,470.4600
39.1000,485.3800
39.1100,495.6950
39.1200,475.6150
39.1300,497.3750
39.1400,509.0100
39.1500,576.0200
39.1600,589.3300
39.1700,628.9550
39.1800,759.1000
39.1900,800.2650
39.2000,815.2950
39.2100,840.5700
39.2200,909.0225
39.2300,934.5675
39.2400,960.5200
39.2500,996.1075
39.2600,985.1150
39.2700,941.6825
39.2800,1002.0700
39.2900,1054.5625
39.3000,917.5075
39.3100,879.2350
39.3200,796.6300
39.3300,831.1000
39.3400,765.6250
39.3500,738.9200
39.3600,745.5350
39.3700,717.1300
39.3800,666.1100
39.3900,704.2400
39.4000,707.0525
39.4100,674.2725
39.4200,622.9125
39.4300,607.8450
39.4400,650.7450
39.4500,721.2700
39.4600,791.6225
39.4700,861.5775
39.4800,987.2025
39.4900,1334.1925
39.5000,1532.1425
39.5100,1746.2975
39.5200,1820.0775
39.5300,1937.6050
39.5400,2014.5975
39.5500,2037.9100
39.5600,2165.2625
39.5700,2081.4500
39.5800,1979.4025
39.5900,2068.4025
39.6000,1952.6275
39.6100,1860.7725
39.6200,1800.6950
39.6300,1607.8475
39.6400,1542.3500
39.6500,1455.6350
39.6600,1307.4150
39.6700,1275.1075
39.6800,1230.0175
39.6900,1087.7125
39.7000,1003.2300
39.7100,872.3175
39.7200,775.5950
39.7300,691.4050
39.7400,636.8750
39.7500,558.1775
39.7600,500.7325
39.7700,473.2525
39.7800,504.4000
39.7900,495.6775
39.8000,458.9850
39.8100,470.4950
39.8200,399.0200
39.8300,389.5225
39.8400,418.5400
39.8500,414.7775
39.8600,424.7325
39.8700,429.5150
39.8800,441.3825
39.8900,389.3050
39.9000,368.6350
39.9100,412.0975
39.9200,408.6500
39.9300,361.3025
39.9400,390.1650
39.9500,374.0175
39.9600,375.6575
39.9700,331.4375
39.9800,323.3325
39.9900,410.8375
40.0000,446.4100
40.0100,416.1775
40.0200,379.0175
40.0300,390.2200
40.0400,376.4600
40.0500,378.9550
40.0600,374.3825
40.0700,367.7200
40.0800,347.0375
40.0900,334.9275
40.1000,355.7325
40.1100,387.9775
40.1200,379.3550
40.1300,362.6975
40.1400,415.8325
40.1500,409.9300
40.1600,364.8550
40.1700,376.1650
40.1800,432.8850
40.1900,415.5200
40.2000,359.9725
40.2100,344.4450
40.2200,354.4350
40.2300,367.7600
40.2400,383.8550
40.2500,408.8200
40.2600,407.8000
40.2700,412.1975
40.2800,410.5700
40.2900,387.9125
40.3000,402.6450
40.3100,423.2075
40.3200,421.1575
40.3300,425.5050
40.3400,407.4125
40.3500,400.5850
40.3600,413.7325
40.3700,411.1775
40.3800,423.7125
40.3900,440.3675
40.4000,432.3800
40.4100,465.5725
40.4200,451.4600
40.4300,441.2025
40.4400,434.5400
40.4500,425.1475
40.4600,447.8700
40.4700,417.9200
40.4800,418.1675
40.4900,458.0800
40.5000,493.8475
40.5100,538.0250
40.5200,590.0900
40.5300,562.0325
40.5400,604.8225
40.5500,665.4100
40.5600,636.0775
40.5700,664.5225
40.5800,770.6025
40.5900,841.9325
40.6000,945.0600
40.6100,1131.1150
40.6200,1388.2025
40.6300,1701.1075
40.6400,2053.8350
40.6500,2496.9400
40.6600,2672.6125
40.6700,2749.6925
40.6800,3012.7400
40.6900,3282.3575
40.7000,3461.8675
40.7100,3635.1500
40.7200,3597.8075
40.7300,3360.9125
40.7400,3226.5725
40.7500,3190.6600
40.7600,2976.0700
40.7700,2680.9275
40.7800,2446.9825
40.7900,2419.2925
40.8000,2311.7050
40.8100,2203.6575
40.8200,2050.6425
40.8300,1926.5025
40.8400,1699.2950
40.8500,1511.6250
40.8600,1426.3950
40.8700,1257.3425
40.8800,1013.2375
40.8900,936.2400
40.9000,808.6550
40.9100,650.1400
40.9200,619.3000
40.9300,591.0475
40.9400,488.6525
40.9500,442.3075
40.9600,418.2850
40.9700,455.3200
40.9800,498.1325
40.9900,496.1850
41.0000,461.9150
41.0100,466.4150
41.0200,436.0150
41.0300,382.2575
41.0400,380.4425
41.0500,380.7250
41.0600,393.0325
41.0700,409.6900
41.0800,428.9475
41.0900,428.1325
41.1000,369.4975
41.1100,387.0900
41.1200,409.6400
41.1300,397.7775
41.1400,380.3800
41.1500,355.9550
41.1600,396.5625
41.1700,417.7550
41.1800,409.6675
41.1900,380.8575
41.2000,381.0700
41.2100,403.9500
41.2200,381.6725
41.2300,399.0650
41.2400,388.6675
41.2500,357.6400
41.2600,378.2425
41.2700,371.2750
41.2800,356.4125
41.2900,330.2800
41.3000,313.0950
41.3100,353.4825
41.3200,397.3350
41.3300,365.8050
41.3400,368.6450
41.3500,396.2825
41.3600,393.1400
41.3700,415.4625
41.3800,469.1300
41.3900,424.8600
41.4000,416.8275
41.4100,389.5375
41.4200,410.4375
41.4300,402.2575
41.4400,358.6750
41.4500,371.9750
41.4600,400.2300
41.4700,394.0325
41.4800,357.1750
41.4900,389.5600
41.5000,428.5450
41.5100,403.9150
41.5200,388.2975
41.5300,389.1825
41.5400,390.0000
41.5500,357.3475
41.5600,344.1575
41.5700,368.4125
41.5800,411.7500
41.5900,440.8625
41.6000,401.6275
41.6100,424.1700
41.6200,444.1625
41.6300,409.2200
41.6400,404.1500
41.6500,416.6375
41.6600,429.9625
41.6700,400.9775
41.6800,459.6350
41.6900,453.5125
41.7000,416.0175
41.7100,419.0725
41.7200,440.6900
41.7300,483.8300
41.7400,509.0450
41.7500,488.5950
41.7600,507.1900
41.7700,553.7175
41.7800,576.5400
41.7900,619.4600
41.8000,690.0150
41.8100,766.6375
41.8200,946.6100
41.8300,1175.4500
41.8400,1374.2550
41.8500,1555.9050
41.8600,1721.0850
41.8700,1964.3400
41.8800,2122.3975
41.8900,2280.6075
41.9000,2348.6775
41.9100,2385.9925
41.9200,2482.1375
41.9300,2625.5800
41.9400,2530.1225
41.9500,2353.3050
41.9600,2243.3675
41.9700,2120.2600
41.9800,1993.3925
41.9900,1872.5550
42.0000,1738.0600
42.0100,1629.6675
42.0200,1588.7925
42.0300,1609.9700
42.0400,1438.5175
42.0500,1326.4775
42.0600,1322.0800
42.0700,1119.0425
42.0800,941.0925
42.0900,840.6600
42.1000,717.9100
42.1100,612.6075
42.1200,601.0975
42.1300,575.4250
42.1400,527.3125
42.1500,482.1400
42.1600,486.7850
42.1700,481.3550
42.1800,483.8500
42.1900,462.7450
42.2000,422.2575
42.2100,405.2225
42.2200,398.5600
42.2300,403.8225
42.2400,423.3475
42.2500,453.8125
42.2600,420.5025
42.2700,410.4650
42.2800,439.4675
42.2900,445.2525
42.3000,469.4275
42.3100,446.8150
42.3200,445.1750
42.3300,454.7325
42.3400,482.6800
42.3500,474.4275
42.3600,417.0800
42.3700,417.9025
42.3800,462.0325
42.3900,512.0050
42.4000,529.0200
42.4100,518.2375
42.4200,518.0350
42.4300,545.8350
42.4400,559.0125
42.4500,576.4150
42.4600,602.0800
42.4700,612.3425
42.4800,613.3325
42.4900,657.7550
42.5000,686.0125
42.5100,652.6500
42.5200,632.0025
42.5300,625.3375
42.5400,621.0050
42.5500,561.8200
42.5600,501.7850
42.5700,491.3150
42.5800,509.5875
42.5900,530.5875
42.6000,513.4825
42.6100,491.7500
42.6200,505.1850
42.6300,469.3850
42.6400,433.8225
42.6500,445.1425
42.6600,430.2550
42.6700,385.4100
42.6800,374.6075
42.6900,388.1775
42.7000,404.8375
42.7100,405.4025
42.7200,391.8475
42.7300,386.6675
42.7400,354.5550
42.7500,340.0000
42.7600,330.8400
42.7700,328.9550
42.7800,357.4400
42.7900,395.1325
42.8000,404.3825
42.8100,378.2375
42.8200,373.5050
42.8300,372.1100
42.8400,367.7250
42.8500,371.2150
42.8600,389.2425
42.8700,414.8325
42.8800,430.1400
42.8900,460.5425
42.9000,471.0675
42.9100,460.9450
42.9200,481.5500
42.9300,477.5100
42.9400,470.0000
42.9500,494.8275
42.9600,504.4125
42.9700,487.5575
42.9800,475.4975
42.9900,459.8325
43.0000,466.8225
43.0100,473.3325
43.0200,455.3750
43.0300,386.1000
43.0400,392.5300
43.0500,396.5625
43.0600,385.5250
43.0700,412.4050
43.0800,393.1475
43.0900,425.7900
43.1000,441.0750
43.1100,421.0600
43.1200,388.8275
43.1300,347.7275
43.1400,342.2300
43.1500,342.2225
43.1600,351.1050
43.1700,352.2275
43.1800,323.3900
43.1900,301.1375
43.2000,321.0225
43.2100,355.4575
43.2200,371.0875
43.2300,377.7525
43.2400,371.1700
43.2500,371.0775
43.2600,344.6825
43.2700,336.6075
43.2800,368.6075
43.2900,403.1225
43.3000,400.1500
43.3100,380.1600
43.3200,415.0175
43.3300,434.4750
43.3400,398.2850
43.3500,369.0550
43.3600,376.4575
43.3700,381.1475
43.3800,358.1625
43.3900,372.8525
43.4000,384.4850
43.4100,372.4400
43.4200,366.6675
43.4300,388.4200
43.4400,419.5650
43.4500,421.3125
43.4600,392.7925
43.4700,393.0125
43.4800,447.6775
43.4900,497.1525
43.5000,481.8700
43.5100,468.8300
43.5200,530.4950
43.5300,580.6050
43.5400,598.6300
43.5500,601.1775
43.5600,615.0775
43.5700,681.4450
43.5800,743.4425
43.5900,837.3625
43.6000,916.5050
43.6100,919.5000
43.6200,918.5750
43.6300,919.0475
43.6400,925.2300
43.6500,944.9750
43.6600,923.4075
43.6700,921.6175
43.6800,927.8650
43.6900,860.5550
43.7000,789.2375
43.7100,831.7500
43.7200,873.0500
43.7300,870.2875
43.7400,790.1850
43.7500,782.7550
43.7600,799.0900
43.7700,764.8725
43.7800,736.0775
43.7900,770.2100
43.8000,734.1200
43.8100,659.8500
43.8200,600.7700
43.8300,592.6600
43.8400,646.3825
43.8500,696.5075
43.8600,682.6350
43.8700,658.2525
43.8800,653.3325
43.8900,697.4400
43.9000,782.0950
43.9100,833.4425
43.9200,820.2825
43.9300,902.9850
43.9400,995.5675
43.9500,1029.2100
43.9600,1101.4275
43.9700,1129.5625
43.9800,1102.4750
43.9900,1200.4675
44.0000,1254.1700
44.0100,1202.9625
44.0200,1174.5875
44.0300,1158.7875
44.0400,1129.2375
44.0500,1068.9475
44.0600,996.4625
44.0700,936.8550
44.0800,912.5275
44.0900,885.1775
44.1000,851.3975
44.1100,831.7375
44.1200,820.4750
44.1300,781.6100
44.1400,764.1200
44.1500,754.3125
44.1600,740.4950
44.1700,757.2250
44.1800,790.5425
44.1900,784.8575
44.2000,734.3600
44.2100,669.0075
44.2200,678.1525
44.2300,718.4200
44.2400,742.2700
44.2500,778.6075
44.2600,776.2475
44.2700,712.3250
44.2800,680.0000
44.2900,645.3675
44.3000,598.9050
44.3100,562.9925
44.3200,584.5550
44.3300,592.4500
44.3400,587.3925
44.3500,571.7475
44.3600,539.7350
44.3700,520.5925
44.3800,522.7375
44.3900,514.5350
44.4000,516.7675
44.4100,515.2575
44.4200,495.8800
44.4300,458.4450
44.4400,421.8725
44.4500,395.9100
44.4600,376.6100
44.4700,347.8925
44.4800,337.3500
44.4900,352.0400
44.5000,357.9950
44.5100,358.6700
44.5200,339.9800
44.5300,316.6650
44.5400,355.9775
44.5500,372.6850
44.5600,359.3425
44.5700,324.7550
44.5800,323.2625
44.5900,338.6575
44.6000,343.9800
44.6100,338.7125
44.6200,339.2950
44.6300,357.2325
44.6400,372.6200
44.6500,346.9275
44.6600,344.4950
44.6700,368.5450
44.6800,368.7550
44.6900,371.2400
44.7000,396.4175
44.7100,408.0275
44.7200,390.8900
44.7300,387.8825
44.7400,375.6100
44.7500,390.8800
44.7600,441.4600
44.7700,492.8050
44.7800,558.4875
44.7900,623.3500
44.8000,632.9450
44.8100,625.2925
44.8200,603.1775
44.8300,617.9600
44.8400,610.6850
44.8500,601.7175
44.8600,604.1450
44.8700,535.6500
44.8800,490.0000
44.8900,521.1525
44.9000,543.3325
44.9100,518.0600
44.9200,511.6575
44.9300,527.7650
44.9400,506.1750
44.9500,455.6525
44.9600,441.0800
44.9700,456.3450
44.9800,461.4000
44.9900,425.2125
45.0000,388.4125
45.0100,347.1950
45.0200,344.5450
45.0300,365.7800
45.0400,375.7750
45.0500,356.9125
45.0600,361.1475
45.0700,355.5350
45.0800,341.9200
45.0900,349.0875
45.1000,357.1675
45.1100,327.4400
45.1200,328.2150
45.1300,392.5675
45.1400,401.8225
45.1500,368.0550
45.1600,366.2075
45.1700,380.9600
45.1800,375.2350
45.1900,364.7625
45.2000,350.0150
45.2100,364.7150
45.2200,377.6350
45.2300,360.0450
45.2400,372.7625
45.2500,384.3125
45.2600,370.5300
45.2700,357.6550
45.2800,349.5500
45.2900,356.1175
45.3000,361.4450
45.3100,369.4350
45.3200,403.0675
45.3300,425.2175
45.3400,419.1350
45.3500,422.7425
45.3600,405.5575
45.3700,367.8775
45.3800,372.1075
45.3900,392.2950
45.4000,387.2925
45.4100,383.7475
45.4200,364.2050
45.4300,376.5950
45.4400,373.8325
45.4500,362.6725
45.4600,371.8675
45.4700,354.6825
45.4800,341.8625
45.4900,358.2325
45.5000,362.5575
45.5100,371.5425
45.5200,368.4675
45.5300,356.6675
45.5400,388.2100
45.5500,394.7925
45.5600,383.7050
45.5700,382.9650
45.5800,385.5500
45.5900,391.8475
45.6000,398.8750
45.6100,425.4850
45.6200,450.7125
45.6300,443.7625
45.6400,427.8075
45.6500,465.6675
45.6600,494.4825
45.6700,464.2700
45.6800,459.8625
45.6900,462.3225
45.7000,486.3425
45.7100,515.1650
45.7200,492.8600
45.7300,462.3550
45.7400,462.4750
45.7500,460.8650
45.7600,449.6825
45.7700,464.9125
45.7800,490.9400
45.7900,510.9325
45.8000,507.2550
45.8100,493.0275
45.8200,502.7250
45.8300,489.7175
45.8400,475.4450
45.8500,498.1400
45.8600,536.9000
45.8700,553.0450
45.8800,539.1400
45.8900,508.2950
45.9000,488.1925
45.9100,466.7975
45.9200,439.1700
45.9300,455.2500
45.9400,451.4350
45.9500,426.3975
45.9600,405.3350
45.9700,386.4025
45.9800,421.0725
45.9900,438.9675
46.0000,405.1325
46.0100,397.4250
46.0200,381.5800
46.0300,383.2800
46.0400,401.5450
46.0500,374.9650
46.0600,358.6950
46.0700,349.0500
46.0800,345.5875
46.0900,339.0700
46.1000,317.7575
46.1100,308.2200
46.1200,299.5500
46.1300,320.0025
46.1400,341.5575
46.1500,331.1225
46.1600,328.6550
46.1700,335.1050
46.1800,322.4925
46.1900,311.7700
46.2000,332.7925
46.2100,341.1600
46.2200,326.2675
46.2300,309.4075
46.2400,280.5950
46.2500,289.7750
46.2600,330.9500
46.2700,332.5850
46.2800,344.6275
46.2900,378.9725
46.3000,363.6500
46.3100,332.9775
46.3200,342.4550
46.3300,353.1600
46.3400,351.7525
46.3500,362.0850
46.3600,378.7450
46.3700,400.6500
46.3800,425.5600
46.3900,459.3575
46.4000,457.3250
46.4100,447.1250
46.4200,460.1500
46.4300,458.1125
46.4400,455.0725
46.4500,454.9275
46.4600,479.3875
46.4700,496.3900
46.4800,498.6725
46.4900,480.6675
46.5000,465.3275
46.5100,473.3325
46.5200,464.6850
46.5300,465.3100
46.5400,468.1525
46.5500,451.2500
46.5600,455.5250
46.5700,461.3825
46.5800,442.9975
46.5900,441.9400
46.6000,427.6375
46.6100,399.7900
46.6200,393.3325
46.6300,400.2000
46.6400,418.6750
46.6500,424.8575
46.6600,358.3300
46.6700,322.2550
46.6800,375.8350
46.6900,386.1525
46.7000,354.7075
46.7100,350.1625
46.7200,344.7250
46.7300,346.9725
46.7400,363.4075
46.7500,370.0725
46.7600,359.7225
46.7700,344.9675
46.7800,343.3325
46.7900,338.2400
46.8000,345.2100
46.8100,366.8400
46.8200,354.6400
46.8300,345.1850
46.8400,354.9750
46.8500,356.7150
46.8600,346.4825
46.8700,326.5800
46.8800,357.1250
46.8900,378.1575
46.9000,375.1300
46.9100,354.6700
46.9200,335.1125
46.9300,341.6225
46.9400,350.1125
46.9500,349.8975
46.9600,351.7725
46.9700,349.8950
46.9800,329.9800
46.9900,333.3675
47.0000,350.0425
47.0100,349.9650
47.0200,361.7300
47.0300,364.9575
47.0400,356.6825
47.0500,396.6950
47.0600,421.6650
47.0700,436.6575
47.0800,471.6500
47.0900,503.3050
47.1000,544.9400
47.1100,594.9225
47.1200,620.0000
47.1300,641.5725
47.1400,643.4350
47.1500,646.5325
47.1600,689.8725
47.1700,681.8650
47.1800,640.1025
47.1900,646.5000
47.2000,635.2850
47.2100,603.3325
47.2200,591.7875
47.2300,571.7575
47.2400,556.7450
47.2500,558.2300
47.2600,543.6350
47.2700,513.4225
47.2800,505.0225
47.2900,498.4075
47.3000,504.8200
47.3100,510.1075
47.3200,486.9475
47.3300,460.1750
47.3400,430.3625
47.3500,390.3750
47.3600,356.9250
47.3700,344.9675
47.3800,369.5200
47.3900,378.6525
47.4000,337.2500
47.4100,310.0000
47.4200,336.0500
47.4300,345.4350
47.4400,316.9100
47.4500,309.9175
47.4600,336.0675
47.4700,361.6225
47.4800,353.6025
47.4900,346.5750
47.5000,328.9450
47.5100,308.2850
47.5200,322.9400
47.5300,346.3650
47.5400,348.5900
47.5500,349.6875
47.5600,347.0925
47.5700,351.0700
47.5800,374.8350
47.5900,373.5575
47.6000,344.1350
47.6100,350.5600
47.6200,399.4075
47.6300,408.6350
47.6400,383.9475
47.6500,371.4800
47.6600,357.4275
47.6700,320.6450
47.6800,316.1425
47.6900,339.6025
47.7000,356.3975
47.7100,353.7450
47.7200,365.6950
47.7300,405.9625
47.7400,399.4050
47.7500,368.5500
47.7600,353.7750
47.7700,343.3325
47.7800,333.7850
47.7900,342.4150
47.8000,379.2250
47.8100,379.1950
47.8200,350.4775
47.8300,352.6900
47.8400,376.1775
47.8500,370.8225
47.8600,334.3325
47.8700,340.2325
47.8800,376.3250
47.8900,377.0125
47.9000,373.1600
47.9100,362.4600
47.9200,343.5125
47.9300,333.6950
47.9400,348.7250
47.9500,352.8650
47.9600,328.4275
47.9700,336.1025
47.9800,354.5250
47.9900,369.6150
48.0000,378.2375
48.0100,359.6050
48.0200,353.9125
48.0300,395.2700
48.0400,424.6975
48.0500,397.1350
48.0600,369.3850
48.0700,370.6225
48.0800,389.6800
48.0900,437.3850
48.1000,436.1700
48.1100,426.0225
48.1200,463.1575
48.1300,491.7750
48.1400,499.3400
48.1500,533.3325
48.1600,581.7650
48.1700,578.7000
48.1800,545.1150
48.1900,521.6075
48.2000,509.0725
48.2100,527.9825
48.2200,525.5875
48.2300,494.9925
48.2400,490.1125
48.2500,504.0550
48.2600,511.8775
48.2700,561.1325
48.2800,601.0500
48.2900,642.3950
48.3000,693.8750
48.3100,734.6525
48.3200,771.0325
48.3300,804.6225
48.3400,814.8775
48.3500,774.8875
48.3600,744.1150
48.3700,724.1200
48.3800,702.5925
48.3900,673.1300
48.4000,653.3325
48.4100,625.7625
48.4200,587.2100
48.4300,553.9900
48.4400,541.6825
48.4500,574.0300
48.4600,562.2300
48.4700,521.1225
48.4800,532.6000
48.4900,551.1350
48.5000,524.4775
48.5100,511.5225
48.5200,525.5100
48.5300,526.3100
48.5400,478.0750
48.5500,435.4425
48.5600,405.7025
48.5700,363.0075
48.5800,375.4850
48.5900,388.7775
48.6000,340.6075
48.6100,339.0750
48.6200,371.5125
48.6300,385.4325
48.6400,365.2325
48.6500,324.8450
48.6600,344.7850
48.6700,371.1925
48.6800,354.0450
48.6900,319.1300
48.7000,322.0525
48.7100,341.1825
48.7200,322.5900
48.7300,305.3650
48.7400,335.0300
48.7500,359.3425
48.7600,365.1650
48.7700,348.3275
48.7800,344.9975
48.7900,367.8300
48.8000,364.3450
48.8100,368.3050
48.8200,397.1425
48.8300,393.5500
48.8400,385.2900
48.8500,405.9750
48.8600,438.7150
48.8700,481.9375
48.8800,502.6325
48.8900,507.0200
48.9000,504.8225
48.9100,511.1325
48.9200,536.0125
48.9300,546.6150
48.9400,535.9450
48.9500,549.2750
48.9600,538.8475
48.9700,519.6350
48.9800,538.1650
48.9900,562.5975
49.0000,528.5150
49.0100,457.4150
49.0200,455.5325
49.0300,507.0000
49.0400,535.1875
49.0500,549.5875
49.0600,570.0000
49.0700,568.5250
49.0800,579.9450
49.0900,618.7825
49.1000,662.8775
49.1100,690.6975
49.1200,679.3900
49.1300,672.4600
49.1400,686.3725
49.1500,664.5150
49.1600,665.0850
49.1700,687.3400
49.1800,670.2550
49.1900,608.8025
49.2000,583.5950
49.2100,603.9925
49.2200,607.4775
49.2300,594.1450
49.2400,589.5925
49.2500,577.2525
49.2600,555.2050
49.2700,560.6350
49.2800,552.4850
49.2900,540.2125
49.3000,554.7925
49.3100,562.4950
49.3200,552.5200
49.3300,532.9125
49.3400,543.9425
49.3500,531.5175
49.3600,488.7975
49.3700,451.1125
49.3800,413.5975
49.3900,409.7275
49.4000,461.4800
49.4100,489.2700
49.4200,450.7275
49.4300,444.4825
49.4400,444.5150
49.4500,412.7650
49.4600,404.7800
49.4700,425.4550
49.4800,432.6650
49.4900,398.4500
49.5000,376.1175
49.5100,368.1100
49.5200,362.7925
49.5300,353.3325
49.5400,356.2150
49.5500,364.3175
49.5600,370.0000
49.5700,362.8100
49.5800,341.8350
49.5900,323.7925
49.6000,325.7425
49.6100,336.2025
49.6200,342.8700
49.6300,350.9675
49.6400,360.9650
49.6500,366.6675
49.6600,365.2350
49.6700,363.3325
49.6800,359.0425
49.6900,363.3400
49.7000,365.2375
49.7100,350.0000
49.7200,335.7275
49.7300,320.9475
49.7400,316.6850
49.7500,314.7350
49.7600,321.4525
49.7700,319.9675
49.7800,344.7175
49.7900,347.1975
49.8000,307.2525
49.8100,289.4550
49.8200,316.6100
49.8300,328.5800
49.8400,328.0850
49.8500,334.2550
49.8600,321.5725
49.8700,300.9175
49.8800,303.8350
49.8900,311.3250
49.9000,299.7850
49.9100,280.3025
49.9200,321.7100
49.9300,315.5850
49.9400,276.1575
49.9500,306.8175
49.9600,344.7450
49.9700,338.2050
49.9800,326.6675
49.9900,326.6675
50.0000,326.6675
