#Intensity_unit=cps
#Attenuator_coefficient=1.0000
10.0000,822.3075
10.0100,871.3025
10.0200,970.7250
10.0300,889.0100
10.0400,895.1600
10.0500,896.6675
10.0600,902.7250
10.0700,936.6450
10.0800,1085.3025
10.0900,1024.3500
10.1000,947.0975
10.1100,970.2350
10.1200,909.8625
10.1300,894.2700
10.1400,908.4325
10.1500,940.1900
10.1600,964.4575
10.1700,948.5675
10.1800,937.6200
10.1900,951.7375
10.2000,893.0750
10.2100,868.5950
10.2200,929.8875
10.2300,942.6850
10.2400,886.1775
10.2500,880.0000
10.2600,873.9875
10.2700,867.3250
10.2800,902.7075
10.2900,978.7200
10.3000,995.6700
10.3100,951.6700
10.3200,895.6925
10.3300,869.0175
10.3400,896.6275
10.3500,894.0100
10.3600,863.3975
10.3700,916.8575
10.3800,941.2800
10.3900,994.1650
10.4000,946.2025
10.4100,934.0250
10.4200,909.4425
10.4300,870.8450
10.4400,863.6825
10.4500,818.5925
10.4600,893.8325
10.4700,882.4725
10.4800,936.6000
10.4900,904.6225
10.5000,864.2825
10.5100,886.7775
10.5200,901.8950
10.5300,888.4700
10.5400,889.6375
10.5500,881.0900
10.5600,835.4650
10.5700,815.1600
10.5800,831.1325
10.5900,928.2225
10.6000,948.8925
10.6100,852.2300
10.6200,875.5375
10.6300,897.7625
10.6400,855.6150
10.6500,832.2525
10.6600,921.6500
10.6700,871.2750
10.6800,836.7475
10.6900,889.4325
10.7000,884.8600
10.7100,842.0325
10.7200,836.6675
10.7300,901.5125
10.7400,859.9125
10.7500,829.7725
10.7600,867.8775
10.7700,876.2750
10.7800,876.6675
10.7900,856.0875
10.8000,826.8850
10.8100,832.1450
10.8200,859.7575
10.8300,880.9425
10.8400,892.1325
10.8500,881.6050
10.8600,880.0000
10.8700,903.4350
10.8800,915.4525
10.8900,890.3250
10.9000,933.4775
10.9100,901.9850
10.9200,902.5125
10.9300,894.5675
10.9400,948.8200
10.9500,933.3150
10.9600,883.3150
10.9700,865.0000
10.9800,889.5700
10.9900,910.8175
11.0000,910.4200
11.0100,883.8000
11.0200,845.0825
11.0300,866.1775
11.0400,878.7225
11.0500,897.4350
11.0600,850.6225
11.0700,828.8175
11.0800,931.1350
11.0900,856.7500
11.1000,875.2250
11.1100,897.3875
11.1200,905.7925
11.1300,915.3525
11.1400,835.6375
11.1500,843.5800
11.1600,840.8850
11.1700,842.8900
11.1800,912.6575
11.1900,914.6725
11.2000,916.2200
11.2100,896.4750
11.2200,907.7500
11.2300,935.9350
11.2400,853.5875
11.2500,802.5725
11.2600,819.6875
11.2700,852.0975
11.2800,862.4175
11.2900,906.4375
11.3000,896.1000
11.3100,910.5575
11.3200,841.5950
11.3300,855.8125
11.3400,877.2000
11.3500,908.6525
11.3600,830.2775
11.3700,859.6050
11.3800,946.7825
11.3900,948.5600
11.4000,889.4975
11.4100,851.4300
11.4200,838.1000
11.4300,850.9375
11.4400,833.3625
11.4500,807.1875
11.4600,837.5350
11.4700,831.9375
11.4800,784.4425
11.4900,836.4325
11.5000,858.0450
11.5100,834.4125
11.5200,815.7900
11.5300,867.3000
11.5400,836.9200
11.5500,900.9400
11.5600,867.9550
11.5700,823.1475
11.5800,845.0000
11.5900,855.6650
11.6000,856.6675
11.6100,867.9825
11.6200,861.5175
11.6300,851.5200
11.6400,864.1250
11.6500,872.3125
11.6600,907.1975
11.6700,859.7425
11.6800,782.3400
11.6900,817.9025
11.7000,826.6675
11.7100,812.5925
11.7200,781.8650
11.7300,793.5400
11.7400,833.2050
11.7500,851.2375
11.7600,842.1025
11.7700,896.1275
11.7800,842.1550
11.7900,869.2475
11.8000,865.4575
11.8100,815.7250
11.8200,890.6400
11.8300,853.5100
11.8400,795.7975
11.8500,803.4350
11.8600,840.1875
11.8700,852.2500
11.8800,833.8000
11.8900,807.6875
11.9000,831.2075
11.9100,819.9500
11.9200,836.1600
11.9300,909.5775
11.9400,903.8625
11.9500,869.4175
11.9600,863.3325
11.9700,888.3300
11.9800,912.7650
11.9900,869.5025
12.0000,854.4550
12.0100,822.8475
12.0200,824.9775
12.0300,884.8050
12.0400,874.5300
12.0500,878.2975
12.0600,896.5850
12.0700,853.0375
12.0800,868.1825
12.0900,856.7750
12.1000,825.7525
12.1100,775.8950
12.1200,761.1575
12.1300,782.0300
12.1400,808.6825
12.1500,824.3350
12.1600,873.4025
12.1700,855.8575
12.1800,847.2550
12.1900,813.7300
12.2000,817.6400
12.2100,841.9325
12.2200,832.9650
12.2300,794.3975
12.2400,844.1450
12.2500,867.6100
12.2600,902.8100
12.2700,869.0100
12.2800,824.4950
12.2900,789.3700
12.3000,807.8850
12.3100,870.5900
12.3200,905.1325
12.3300,890.9350
12.3400,859.4475
12.3500,915.9025
12.3600,864.7450
12.3700,879.8925
12.3800,875.8025
12.3900,835.3325
12.4000,921.6150
12.4100,935.2000
12.4200,944.1725
12.4300,1054.9950
12.4400,1088.1200
12.4500,1168.4500
12.4600,1175.8525
12.4700,1246.2900
12.4800,1355.1500
12.4900,1533.2075
12.5000,1707.5700
12.5100,1810.0925
12.5200,1910.1925
12.5300,2091.5675
12.5400,2124.6175
12.5500,2072.2300
12.5600,2151.3975
12.5700,2189.4525
12.5800,2077.8775
12.5900,1964.1275
12.6000,2007.7000
12.6100,1940.2425
12.6200,1914.6425
12.6300,1889.2375
12.6400,1781.6575
12.6500,1732.6000
12.6600,1601.0575
12.6700,1415.0825
12.6800,1382.0050
12.6900,1396.6725
12.7000,1357.3400
12.7100,1304.0325
12.7200,1277.3550
12.7300,1363.8250
12.7400,1575.5225
12.7500,1732.3275
12.7600,1791.8825
12.7700,1877.0000
12.7800,1925.8575
12.7900,1943.9425
12.8000,2002.3250
12.8100,2011.3700
12.8200,1957.0550
12.8300,1945.9800
12.8400,1928.1575
12.8500,1849.3425
12.8600,1816.7950
12.8700,1678.7275
12.8800,1574.7525
12.8900,1585.6650
12.9000,1601.2375
12.9100,1484.8525
12.9200,1379.6575
12.9300,1254.8125
12.9400,1124.1700
12.9500,1054.6425
12.9600,1006.5850
12.9700,912.7225
12.9800,900.4875
12.9900,913.8125
13.0000,919.2850
13.0100,823.1775
13.0200,807.1275
13.0300,849.2025
13.0400,833.8800
13.0500,797.9525
13.0600,790.0000
13.0700,743.0725
13.0800,802.9525
13.0900,786.8800
13.1000,805.2900
13.1100,766.5225
13.1200,727.3450
13.1300,771.9475
13.1400,802.2400
13.1500,793.6975
13.1600,826.2925
13.1700,800.3950
13.1800,769.2875
13.1900,822.8450
13.2000,883.9600
13.2100,852.7350
13.2200,798.6800
13.2300,838.2850
13.2400,861.0700
13.2500,798.8925
13.2600,777.4250
13.2700,768.9425
13.2800,838.7000
13.2900,852.2875
13.3000,796.0425
13.3100,738.9175
13.3200,744.6300
13.3300,760.2575
13.3400,755.6450
13.3500,755.8950
13.3600,761.7850
13.3700,773.5650
13.3800,758.7750
13.3900,809.5300
13.4000,798.5875
13.4100,767.0400
13.4200,770.1975
13.4300,783.5250
13.4400,763.7525
13.4500,827.9075
13.4600,900.8525
13.4700,812.4850
13.4800,785.0775
13.4900,824.7300
13.5000,798.6275
13.5100,766.3925
13.5200,727.0775
13.5300,779.9400
13.5400,858.1725
13.5500,841.2825
13.5600,759.2775
13.5700,729.0950
13.5800,736.7575
13.5900,747.5625
13.6000,775.1900
13.6100,798.4375
13.6200,823.4575
13.6300,764.6375
13.6400,760.9200
13.6500,771.6875
13.6600,773.3325
13.6700,758.2900
13.6800,745.8175
13.6900,730.8150
13.7000,751.6875
13.7100,737.4975
13.7200,710.0125
13.7300,760.7625
13.7400,767.5250
13.7500,750.8650
13.7600,756.6325
13.7700,779.9200
13.7800,781.6900
13.7900,789.9450
13.8000,800.7875
13.8100,701.5250
13.8200,689.0000
13.8300,743.7800
13.8400,769.9125
13.8500,788.1900
13.8600,751.2675
13.8700,726.7750
13.8800,718.3925
13.8900,766.0525
13.9000,753.7225
13.9100,664.4275
13.9200,742.6225
13.9300,804.6225
13.9400,786.2675
13.9500,727.4900
13.9600,761.6000
13.9700,767.7225
13.9800,748.6125
13.9900,775.2075
14.0000,781.7675
14.0100,738.3775
14.0200,738.0125
14.0300,740.8875
14.0400,774.2025
14.0500,767.1350
14.0600,769.7575
14.0700,773.3325
14.0800,792.8225
14.0900,744.0100
14.1000,742.7925
14.1100,750.0000
14.1200,767.0025
14.1300,756.3425
14.1400,723.3200
14.1500,723.0275
14.1600,721.8225
14.1700,753.8825
14.1800,810.1975
14.1900,761.4175
14.2000,712.5175
14.2100,693.6800
14.2200,673.1200
14.2300,722.0850
14.2400,743.3325
14.2500,781.8275
14.2600,782.2425
14.2700,781.4725
14.2800,747.3250
14.2900,723.7375
14.3000,731.9850
14.3100,734.2725
14.3200,707.0050
14.3300,725.3675
14.3400,753.3950
14.3500,760.0000
14.3600,712.2750
14.3700,752.9450
14.3800,790.9625
14.3900,784.7625
14.4000,749.0725
14.4100,696.2525
14.4200,691.8775
14.4300,756.0075
14.4400,761.0250
14.4500,729.6325
14.4600,736.5775
14.4700,729.1350
14.4800,732.7925
14.4900,760.2950
14.5000,703.8925
14.5100,681.3850
14.5200,659.7600
14.5300,699.4675
14.5400,722.3550
14.5500,744.5000
14.5600,727.4825
14.5700,714.3175
14.5800,718.0275
14.5900,663.7275
14.6000,654.0575
14.6100,713.8425
14.6200,708.5975
14.6300,684.9800
14.6400,661.3150
14.6500,721.0100
14.6600,715.0225
14.6700,732.6200
14.6800,714.0725
14.6900,709.3050
14.7000,711.0100
14.7100,698.3875
14.7200,711.9000
14.7300,682.8975
14.7400,689.8375
14.7500,730.1000
14.7600,722.5125
14.7700,699.4625
14.7800,691.0225
14.7900,720.0025
14.8000,781.7600
14.8100,812.5500
14.8200,786.7350
14.8300,787.1375
14.8400,811.7225
14.8500,808.5150
14.8600,780.3850
14.8700,776.8800
14.8800,823.5325
14.8900,836.4650
14.9000,840.1950
14.9100,932.4725
14.9200,934.5100
14.9300,928.0750
14.9400,894.5725
14.9500,881.2225
14.9600,858.2950
14.9700,910.3500
14.9800,935.4550
14.9900,919.7100
15.0000,931.4825
15.0100,937.7325
15.0200,1002.3525
15.0300,994.8600
15.0400,958.5775
15.0500,1001.9675
15.0600,1069.5600
15.0700,1078.7225
15.0800,1041.7800
15.0900,1010.9025
15.1000,1021.3325
15.1100,1077.2100
15.1200,1025.8750
15.1300,1007.9550
15.1400,1016.6675
15.1500,1025.6300
15.1600,987.4650
15.1700,968.9025
15.1800,972.2350
15.1900,977.8000
15.2000,937.6100
15.2100,916.6675
15.2200,894.3950
15.2300,894.4600
15.2400,864.4250
15.2500,826.6725
15.2600,832.2050
15.2700,808.9525
15.2800,791.1175
15.2900,781.1450
15.3000,781.0900
15.3100,719.2400
15.3200,649.1275
15.3300,663.0950
15.3400,715.2700
15.3500,715.7150
15.3600,689.0625
15.3700,726.1700
15.3800,725.8375
15.3900,719.9175
15.4000,677.2825
15.4100,690.5800
15.4200,712.1900
15.4300,715.5200
15.4400,718.8525
15.4500,700.3500
15.4600,687.8175
15.4700,686.6675
15.4800,660.5375
15.4900,685.8250
15.5000,730.5750
15.5100,710.7600
15.5200,686.8250
15.5300,631.3075
15.5400,635.8200
15.5500,709.5950
15.5600,690.2750
15.5700,663.3325
15.5800,684.9150
15.5900,713.9150
15.6000,729.7950
15.6100,668.7675
15.6200,635.4825
15.6300,634.5175
15.6400,637.6250
15.6500,644.2900
15.6600,700.2275
15.6700,744.9825
15.6800,723.3925
15.6900,689.5750
15.7000,680.0000
15.7100,684.2650
15.7200,703.7125
15.7300,723.9775
15.7400,712.9850
15.7500,662.9625
15.7600,671.8425
15.7700,698.4825
15.7800,694.8575
15.7900,677.2975
15.8000,691.1500
15.8100,675.8650
15.8200,683.2225
15.8300,679.7950
15.8400,686.8575
15.8500,654.5625
15.8600,634.2075
15.8700,676.5900
15.8800,731.4875
15.8900,747.9025
15.9000,681.7125
15.9100,618.2150
15.9200,653.5250
15.9300,672.8875
15.9400,708.4125
15.9500,691.6275
15.9600,662.5000
15.9700,657.9175
15.9800,650.4275
15.9900,669.5175
16.0000,672.9575
16.0100,677.0325
16.0200,747.5475
16.0300,724.5850
16.0400,692.8700
16.0500,694.6000
16.0600,674.7625
16.0700,644.7800
16.0800,666.2850
16.0900,655.8050
16.1000,624.3350
16.1100,639.2550
16.1200,641.0250
16.1300,649.7275
16.1400,629.2875
16.1500,603.8650
16.1600,634.7375
16.1700,683.2050
16.1800,667.3700
16.1900,667.0400
16.2000,673.8950
16.2100,639.5000
16.2200,636.2500
16.2300,656.8125
16.2400,645.0875
16.2500,623.2075
16.2600,638.9225
16.2700,653.3325
16.2800,663.4300
16.2900,665.9650
16.3000,657.2875
16.3100,685.5425
16.3200,686.5550
16.3300,641.1875
16.3400,656.1275
16.3500,710.0750
16.3600,721.9875
16.3700,694.6550
16.3800,662.0100
16.3900,671.9650
16.4000,658.7375
16.4100,661.9200
16.4200,654.7675
16.4300,640.0000
16.4400,677.7475
16.4500,697.3800
16.4600,665.5775
16.4700,668.4525
16.4800,695.2050
16.4900,685.5450
16.5000,677.2825
16.5100,681.9725
16.5200,701.0675
16.5300,691.6825
16.5400,647.1725
16.5500,610.9525
16.5600,596.0750
16.5700,626.6550
16.5800,636.2925
16.5900,634.4900
16.6000,665.4025
16.6100,681.3825
16.6200,662.4525
16.6300,669.4775
16.6400,704.7350
16.6500,677.2400
16.6600,662.2000
16.6700,659.7575
16.6800,650.0000
16.6900,640.3225
16.7000,646.8675
16.7100,633.4925
16.7200,612.8075
16.7300,640.8350
16.7400,682.5850
16.7500,683.2050
16.7600,665.6500
16.7700,671.5125
16.7800,687.6675
16.7900,658.8700
16.8000,648.6350
16.8100,675.2850
16.8200,707.6600
16.8300,706.1750
16.8400,691.4300
16.8500,705.2175
16.8600,699.5650
16.8700,660.0950
16.8800,668.4400
16.8900,697.5750
16.9000,665.4975
16.9100,617.7700
16.9200,629.7600
16.9300,651.8850
16.9400,649.5675
16.9500,631.6150
16.9600,614.3625
16.9700,621.2625
16.9800,639.3750
16.9900,605.4625
17.0000,616.3625
17.0100,620.1000
17.0200,613.4675
17.0300,632.2600
17.0400,636.6675
17.0500,658.9900
17.0600,652.5100
17.0700,627.7650
17.0800,623.3325
17.0900,615.9250
17.1000,641.4475
17.1100,638.9525
17.1200,594.5200
17.1300,619.0675
17.1400,655.1750
17.1500,656.6675
17.1600,689.7350
17.1700,701.9875
17.1800,677.1700
17.1900,652.0200
17.2000,627.2000
17.2100,620.3200
17.2200,643.4025
17.2300,669.1125
17.2400,653.0050
17.2500,626.0600
17.2600,616.3675
17.2700,626.0300
17.2800,642.1025
17.2900,641.2375
17.3000,672.8150
17.3100,692.5025
17.3200,663.4975
17.3300,659.2750
17.3400,641.2175
17.3500,627.4475
17.3600,620.5150
17.3700,603.0825
17.3800,600.0000
17.3900,617.8825
17.4000,658.3375
17.4100,683.5675
17.4200,681.3225
17.4300,680.2250
17.4400,678.0000
17.4500,657.3550
17.4600,638.0125
17.4700,647.5025
17.4800,651.1550
17.4900,648.6325
17.5000,665.6850
17.5100,657.2800
17.5200,625.9175
17.5300,615.0925
17.5400,585.0575
17.5500,567.1900
17.5600,622.2125
17.5700,656.3350
17.5800,650.0000
17.5900,639.5275
17.6000,612.5700
17.6100,621.0400
17.6200,641.5950
17.6300,629.5800
17.6400,630.4075
17.6500,638.2675
17.6600,621.0950
17.6700,627.4025
17.6800,670.8275
17.6900,672.6500
17.7000,655.0550
17.7100,675.5800
17.7200,636.6675
17.7300,566.1850
17.7400,575.6925
17.7500,620.5275
17.7600,643.4175
17.7700,621.0725
17.7800,588.1450
17.7900,591.9125
17.8000,616.9300
17.8100,660.5550
17.8200,688.3050
17.8300,646.0300
17.8400,604.9750
17.8500,601.6450
17.8600,588.1925
17.8700,600.2500
17.8800,628.3800
17.8900,638.3725
17.9000,648.3675
17.9100,626.5225
17.9200,605.0200
17.9300,640.0850
17.9400,641.6250
17.9500,596.6650
17.9600,594.9825
17.9700,624.9625
17.9800,620.0750
17.9900,609.9500
18.0000,631.5925
18.0100,653.2550
18.0200,631.9525
18.0300,609.8975
18.0400,598.5875
18.0500,576.6675
18.0600,594.7375
18.0700,621.5375
18.0800,651.3000
18.0900,660.2450
18.1000,613.9875
18.1100,571.8400
18.1200,589.4050
18.1300,602.0200
18.1400,585.0425
18.1500,581.7100
18.1600,620.5175
18.1700,637.4375
18.1800,593.8375
18.1900,615.4050
18.2000,661.5025
18.2100,653.7900
18.2200,636.7850
18.2300,649.3850
18.2400,647.4300
18.2500,620.2625
18.2600,627.7200
18.2700,632.1600
18.2800,645.5050
18.2900,625.5775
18.3000,608.3050
18.3100,622.8550
18.3200,604.5925
18.3300,595.9200
18.3400,597.2175
18.3500,664.2000
18.3600,677.0775
18.3700,682.3150
18.3800,722.3300
18.3900,713.1400
18.4000,760.5525
18.4100,838.1725
18.4200,884.0650
18.4300,942.1375
18.4400,1018.0525
18.4500,1054.6675
18.4600,1128.3750
18.4700,1217.5275
18.4800,1254.7925
18.4900,1326.6550
18.5000,1345.7675
18.5100,1317.7125
18.5200,1274.2900
18.5300,1219.4875
18.5400,1285.0350
18.5500,1337.9950
18.5600,1258.7400
18.5700,1120.9075
18.5800,1050.9675
18.5900,1037.1275
18.6000,967.3700
18.6100,889.3025
18.6200,859.7025
18.6300,864.8500
18.6400,824.2875
18.6500,749.1525
18.6600,703.4000
18.6700,681.8275
18.6800,663.4500
18.6900,650.8450
18.7000,654.0000
18.7100,624.2000
18.7200,626.5750
18.7300,642.4300
18.7400,627.1025
18.7500,656.3750
18.7600,666.2625
18.7700,637.0075
18.7800,585.5475
18.7900,543.7075
18.8000,548.8650
18.8100,554.1000
18.8200,564.3400
18.8300,586.6675
18.8400,576.3900
18.8500,563.3325
18.8600,582.3600
18.8700,615.4350
18.8800,633.9625
18.8900,628.7650
18.9000,605.6375
18.9100,597.0950
18.9200,609.2825
18.9300,599.5975
18.9400,581.6825
18.9500,607.1125
18.9600,620.6250
18.9700,611.6825
18.9800,562.8175
18.9900,563.3725
19.0000,593.8475
19.0100,616.6675
19.0200,602.3950
19.0300,590.4575
19.0400,601.4225
19.0500,584.8700
19.0600,567.0900
19.0700,596.4875
19.0800,626.1600
19.0900,627.1775
19.1000,602.2000
19.1100,571.9275
19.1200,555.9575
19.1300,559.0975
19.1400,598.3975
19.1500,607.2050
19.1600,590.7775
19.1700,577.5125
19.1800,593.0675
19.1900,628.8775
19.2000,629.5100
19.2100,583.9000
19.2200,567.5675
19.2300,562.4100
19.2400,585.5075
19.2500,572.7175
19.2600,551.5650
19.2700,559.2250
19.2800,541.0275
19.2900,528.7950
19.3000,550.2950
19.3100,589.0475
19.3200,615.3075
19.3300,587.5725
19.3400,554.0600
19.3500,560.0000
19.3600,573.4900
19.3700,581.2150
19.3800,602.3175
19.3900,626.4500
19.4000,563.2700
19.4100,550.0200
19.4200,573.3500
19.4300,605.3275
19.4400,623.3325
19.4500,616.6925
19.4600,610.6450
19.4700,623.2825
19.4800,616.1600
19.4900,600.5500
19.5000,625.8825
19.5100,621.6025
19.5200,581.5275
19.5300,575.1175
19.5400,575.0350
19.5500,563.6275
19.5600,571.7650
19.5700,532.9325
19.5800,517.9650
19.5900,543.3175
19.6000,591.6375
19.6100,589.3475
19.6200,570.8400
19.6300,621.6275
19.6400,669.2350
19.6500,663.0825
19.6600,617.2475
19.6700,566.1700
19.6800,565.0975
19.6900,552.9800
19.7000,521.2700
19.7100,534.7400
19.7200,565.9825
19.7300,591.7175
19.7400,602.5200
19.7500,623.0200
19.7600,632.4200
19.7700,585.7875
19.7800,575.4300
19.7900,616.6550
19.8000,640.8100
19.8100,644.6250
19.8200,611.3775
19.8300,601.0650
19.8400,645.3250
19.8500,660.0000
19.8600,642.7500
19.8700,614.5625
19.8800,636.3050
19.8900,722.6775
19.9000,794.9925
19.9100,771.8750
19.9200,840.2575
19.9300,996.5450
19.9400,1121.2250
19.9500,1176.9400
19.9600,1324.2650
19.9700,1526.1850
19.9800,1622.5025
19.9900,1737.6700
20.0000,1877.1700
20.0100,1896.6625
20.0200,1785.8625
20.0300,1724.7475
20.0400,1722.3675
20.0500,1741.2325
20.0600,1690.8200
20.0700,1651.1825
20.0800,1623.8300
20.0900,1525.2450
20.1000,1402.1950
20.1100,1304.3800
20.1200,1183.7325
20.1300,1003.9550
20.1400,950.3275
20.1500,936.5725
20.1600,847.1900
20.1700,776.8100
20.1800,746.3300
20.1900,683.5900
20.2000,696.6675
20.2100,675.9800
20.2200,636.6675
20.2300,624.0775
20.2400,592.0050
20.2500,578.9450
20.2600,599.2550
20.2700,636.8100
20.2800,628.4825
20.2900,597.9675
20.3000,612.1050
20.3100,600.0425
20.3200,607.7900
20.3300,616.7225
20.3400,635.5900
20.3500,642.2025
20.3600,625.5400
20.3700,591.1125
20.3800,553.3325
20.3900,573.2450
20.4000,625.4750
20.4100,632.3775
20.4200,619.7450
20.4300,666.6675
20.4400,636.0275
20.4500,563.5075
20.4600,552.0500
20.4700,573.2600
20.4800,573.4925
20.4900,563.2475
20.5000,559.2025
20.5100,534.5125
20.5200,527.8500
20.5300,526.5500
20.5400,538.6850
20.5500,558.5425
20.5600,578.7975
20.5700,593.9625
20.5800,620.9100
20.5900,618.3600
20.6000,604.9475
20.6100,619.4675
20.6200,610.3300
20.6300,630.5625
20.6400,586.9850
20.6500,537.7100
20.6600,564.9900
20.6700,608.5725
20.6800,588.5150
20.6900,613.4425
20.7000,623.7325
20.7100,589.2625
20.7200,611.0275
20.7300,604.1150
20.7400,613.9925
20.7500,710.8600
20.7600,773.3325
20.7700,770.2900
20.7800,802.8125
20.7900,910.5000
20.8000,977.2000
20.8100,1052.0600
20.8200,1083.0075
20.8300,1079.9975
20.8400,1070.6350
20.8500,1119.2575
20.8600,1163.6175
20.8700,1154.2475
20.8800,1102.2250
20.8900,1103.6225
20.9000,1039.9525
20.9100,996.0775
20.9200,979.8175
20.9300,957.4775
20.9400,922.8925
20.9500,865.5650
20.9600,847.6350
20.9700,818.1175
20.9800,735.1825
20.9900,721.4100
21.0000,696.5325
21.0100,641.8850
21.0200,635.7225
21.0300,631.9225
21.0400,586.6675
21.0500,591.4000
21.0600,598.6125
21.0700,585.7250
21.0800,597.4225
21.0900,630.5225
21.1000,612.1200
21.1100,607.5650
21.1200,672.7875
21.1300,673.5100
21.1400,631.7025
21.1500,562.0550
21.1600,560.1175
21.1700,601.3425
21.1800,637.2550
21.1900,624.5250
21.2000,628.1975
21.2100,686.6500
21.2200,722.3825
21.2300,743.9600
21.2400,744.7675
21.2500,778.3350
21.2600,835.9600
21.2700,929.8775
21.2800,995.1150
21.2900,1025.7475
21.3000,1137.3950
21.3100,1282.6675
21.3200,1413.8350
21.3300,1567.0550
21.3400,1708.8925
21.3500,1835.4000
21.3600,1994.6750
21.3700,2138.0275
21.3800,2314.1100
21.3900,2391.4625
21.4000,2439.8900
21.4100,2465.1900
21.4200,2553.8300
21.4300,2531.1750
21.4400,2591.2025
21.4500,2688.3025
21.4600,2834.3825
21.4700,2860.6400
21.4800,2800.7175
21.4900,2820.3575
21.5000,2984.9825
21.5100,2970.0000
21.5200,2972.4925
21.5300,2970.8850
21.5400,2931.7650
21.5500,2878.5450
21.5600,2828.2600
21.5700,2829.4125
21.5800,2762.9925
21.5900,2667.2125
21.6000,2558.5325
21.6100,2406.0250
21.6200,2283.0650
21.6300,2211.5100
21.6400,2077.1925
21.6500,1792.7225
21.6600,1615.1000
21.6700,1456.8075
21.6800,1315.4625
21.6900,1233.5100
21.7000,1187.1500
21.7100,1049.6125
21.7200,944.2525
21.7300,819.0050
21.7400,824.3375
21.7500,811.2475
21.7600,783.3025
21.7700,717.6925
21.7800,618.4350
21.7900,664.2450
21.8000,721.0475
21.8100,722.4450
21.8200,757.1175
21.8300,771.5075
21.8400,786.4400
21.8500,831.9900
21.8600,891.2575
21.8700,981.6175
21.8800,1110.4150
21.8900,1234.4100
21.9000,1317.2975
21.9100,1390.0000
21.9200,1395.8550
21.9300,1453.1350
21.9400,1589.1475
21.9500,1597.6850
21.9600,1553.3325
21.9700,1526.7175
21.9800,1412.7950
21.9900,1351.4275
22.0000,1381.5825
22.0100,1457.7275
22.0200,1376.6725
22.0300,1287.1825
22.0400,1247.1875
22.0500,1103.7975
22.0600,973.7275
22.0700,946.5275
22.0800,924.3400
22.0900,873.4550
22.1000,813.4350
22.1100,817.7700
22.1200,779.2425
22.1300,766.0500
22.1400,769.8975
22.1500,762.8875
22.1600,841.3425
22.1700,830.6025
22.1800,788.0025
22.1900,886.6200
22.2000,951.2500
22.2100,1025.0150
22.2200,1161.0150
22.2300,1271.5275
22.2400,1413.0875
22.2500,1640.9375
22.2600,1971.3350
22.2700,2301.1950
22.2800,2642.0075
22.2900,3065.8325
22.3000,3399.9925
22.3100,3700.8750
22.3200,4013.6850
22.3300,4296.1750
22.3400,4525.8400
22.3500,4495.4800
22.3600,4307.9650
22.3700,4270.6200
22.3800,4248.6750
22.3900,4123.4225
22.4000,3993.7475
22.4100,3691.5750
22.4200,3412.7025
22.4300,3149.8800
22.4400,2874.0225
22.4500,2581.1375
22.4600,2208.8275
22.4700,1917.2075
22.4800,1748.7775
22.4900,1493.7000
22.5000,1332.9650
22.5100,1264.3975
22.5200,1069.9350
22.5300,919.0325
22.5400,786.6275
22.5500,710.1075
22.5600,709.5375
22.5700,641.4475
22.5800,695.2225
22.5900,603.2850
22.6000,583.8625
22.6100,576.7000
22.6200,607.7775
22.6300,587.8150
22.6400,546.0875
22.6500,565.4825
22.6600,591.1500
22.6700,582.7150
22.6800,593.9625
22.6900,574.6200
22.7000,544.5250
22.7100,532.8000
22.7200,539.0175
22.7300,582.4425
22.7400,563.1525
22.7500,566.4075
22.7600,495.4150
22.7700,506.1500
22.7800,493.5450
22.7900,451.2775
22.8000,511.2925
22.8100,503.5525
22.8200,527.8775
22.8300,550.8200
22.8400,538.6675
22.8500,545.0250
22.8600,515.1825
22.8700,500.7600
22.8800,464.7075
22.8900,457.7175
22.9000,488.6650
22.9100,525.3025
22.9200,549.9525
22.9300,505.7075
22.9400,478.1025
22.9500,476.5775
22.9600,533.8500
22.9700,506.3975
22.9800,450.2975
22.9900,500.2600
23.0000,541.4975
23.0100,525.8900
23.0200,497.2750
23.0300,472.7750
23.0400,425.3200
23.0500,424.7025
23.0600,475.7800
23.0700,469.1175
23.0800,469.4750
23.0900,511.7450
23.1000,515.5275
23.1100,462.4700
23.1200,454.9525
23.1300,441.6300
23.1400,433.8100
23.1500,462.5250
23.1600,478.7450
23.1700,472.9100
23.1800,487.1375
23.1900,447.8500
23.2000,477.9600
23.2100,459.6850
23.2200,431.3200
23.2300,421.0700
23.2400,451.7425
23.2500,440.0000
23.2600,440.0000
23.2700,445.0700
23.2800,479.8450
23.2900,456.4125
23.3000,486.8825
23.3100,535.4425
23.3200,498.4900
23.3300,491.1625
23.3400,523.3175
23.3500,497.4050
23.3600,503.3325
23.3700,504.4275
23.3800,513.6950
23.3900,517.3850
23.4000,521.1925
23.4100,509.0000
23.4200,557.3700
23.4300,557.4000
23.4400,510.4775
23.4500,546.7725
23.4600,586.9050
23.4700,674.9725
23.4800,664.3700
23.4900,717.6750
23.5000,864.5375
23.5100,1044.0700
23.5200,1214.7350
23.5300,1338.1000
23.5400,1524.9425
23.5500,1709.7075
23.5600,1857.6250
23.5700,2109.0875
23.5800,2304.1950
23.5900,2418.6175
23.6000,2506.0800
23.6100,2528.7950
23.6200,2489.9325
23.6300,2563.5075
23.6400,2629.2050
23.6500,2573.5150
23.6600,2423.9225
23.6700,2270.1925
23.6800,2049.1900
23.6900,1925.1575
23.7000,1823.8175
23.7100,1667.0050
23.7200,1475.9750
23.7300,1347.9775
23.7400,1235.7450
23.7500,1063.7425
23.7600,944.1000
23.7700,836.9275
23.7800,831.7225
23.7900,728.7250
23.8000,680.6825
23.8100,770.0000
23.8200,762.5525
23.8300,671.7200
23.8400,688.2275
23.8500,621.6500
23.8600,601.6650
23.8700,627.8050
23.8800,686.2000
23.8900,675.1675
23.9000,611.8200
23.9100,635.3175
23.9200,616.4450
23.9300,608.9375
23.9400,545.5800
23.9500,533.8625
23.9600,589.5750
23.9700,581.2400
23.9800,551.8600
23.9900,579.3875
24.0000,570.0000
24.0100,566.4175
24.0200,511.7675
24.0300,537.0925
24.0400,493.2500
24.0500,546.8550
24.0600,548.5125
24.0700,521.8650
24.0800,498.4750
24.0900,528.7525
24.1000,509.1250
24.1100,554.0250
24.1200,564.7925
24.1300,531.1750
24.1400,551.8475
24.1500,522.8450
24.1600,513.4925
24.1700,514.6200
24.1800,473.3325
24.1900,473.0300
24.2000,465.9200
24.2100,451.6175
24.2200,487.6775
24.2300,506.5975
24.2400,429.1650
24.2500,410.8200
24.2600,430.8025
24.2700,449.4750
24.2800,436.6675
24.2900,436.1625
24.3000,423.0875
24.3100,417.2700
24.3200,434.7525
24.3300,474.0275
24.3400,491.7500
24.3500,446.1150
24.3600,429.0300
24.3700,399.8950
24.3800,396.9750
24.3900,407.9675
24.4000,450.3900
24.4100,462.2900
24.4200,426.7600
24.4300,429.5525
24.4400,413.4200
24.4500,416.4125
24.4600,406.5025
24.4700,400.4750
24.4800,420.0000
24.4900,418.7450
24.5000,363.9750
24.5100,394.2250
24.5200,437.5250
24.5300,479.3025
24.5400,443.0300
24.5500,426.7825
24.5600,433.1100
24.5700,420.3700
24.5800,443.7350
24.5900,469.9525
24.6000,466.7575
24.6100,473.9275
24.6200,519.6800
24.6300,492.8500
24.6400,449.8275
24.6500,433.3325
24.6600,433.3625
24.6700,436.4800
24.6800,413.2600
24.6900,403.5700
24.7000,439.8500
24.7100,413.6425
24.7200,476.7750
24.7300,503.2775
24.7400,486.6500
24.7500,479.9125
24.7600,430.0250
24.7700,456.6625
24.7800,426.6850
24.7900,439.9800
24.8000,446.6525
24.8100,459.9600
24.8200,436.7550
24.8300,410.1225
24.8400,410.0000
24.8500,386.8100
24.8600,429.7000
24.8700,489.5375
24.8800,480.0850
24.8900,450.2800
24.9000,453.3000
24.9100,423.6600
24.9200,426.6275
24.9300,383.8725
24.9400,445.8275
24.9500,456.5275
24.9600,456.6675
24.9700,414.0100
24.9800,403.4975
24.9900,406.6100
25.0000,426.3075
25.0100,456.1025
25.0200,512.2250
25.0300,497.0050
25.0400,568.4500
25.0500,553.7000
25.0600,449.0900
25.0700,485.7275
25.0800,580.9850
25.0900,508.5900
25.1000,503.4200
25.1100,496.8450
25.1200,509.6350
25.1300,532.6750
25.1400,526.8600
25.1500,529.9000
25.1600,523.5375
25.1700,549.1625
25.1800,569.3550
25.1900,573.2225
25.2000,615.2025
25.2100,671.3725
25.2200,724.7800
25.2300,755.5825
25.2400,785.5575
25.2500,902.1375
25.2600,993.1975
25.2700,1166.3850
25.2800,1346.1100
25.2900,1525.9675
25.3000,1865.5400
25.3100,2170.4400
25.3200,2559.6375
25.3300,2704.1225
25.3400,2703.6325
25.3500,2862.3875
25.3600,2946.2825
25.3700,3061.1525
25.3800,3006.3775
25.3900,2949.4350
25.4000,2918.1550
25.4100,2821.7100
25.4200,2731.2775
25.4300,2556.0300
25.4400,2350.9150
25.4500,2175.9575
25.4600,2005.9150
25.4700,1732.1200
25.4800,1531.0100
25.4900,1425.6775
25.5000,1256.6450
25.5100,1155.6425
25.5200,980.6475
25.5300,816.4600
25.5400,753.4425
25.5500,699.9500
25.5600,637.2825
25.5700,645.8250
25.5800,627.9450
25.5900,586.1375
25.6000,552.1850
25.6100,509.5400
25.6200,472.4600
25.6300,460.6800
25.6400,453.7925
25.6500,459.5375
25.6600,478.5950
25.6700,470.7100
25.6800,448.3425
25.6900,449.7575
25.7000,468.5300
25.7100,457.6575
25.7200,459.7500
25.7300,438.4375
25.7400,439.7450
25.7500,489.2025
25.7600,444.1725
25.7700,476.8375
25.7800,437.0600
25.7900,436.3975
25.8000,491.7825
25.8100,487.4900
25.8200,459.1575
25.8300,435.2900
25.8400,436.3850
25.8500,427.5200
25.8600,447.9875
25.8700,434.7825
25.8800,442.4550
25.8900,437.2575
25.9000,415.4200
25.9100,386.0400
25.9200,413.6350
25.9300,410.6125
25.9400,422.1000
25.9500,405.2000
25.9600,403.3325
25.9700,436.5175
25.9800,455.0700
25.9900,432.5750
26.0000,430.0000
26.0100,411.9625
26.0200,440.0350
26.0300,461.3375
26.0400,469.3300
26.0500,440.0450
26.0600,406.7375
26.0700,385.3925
26.0800,401.2575
26.0900,400.3475
26.1000,402.9825
26.1100,388.4350
26.1200,401.5500
26.1300,403.3325
26.1400,430.0775
26.1500,394.7375
26.1600,395.9325
26.1700,408.5200
26.1800,389.2725
26.1900,422.1650
26.2000,414.8450
26.2100,431.0500
26.2200,477.5875
26.2300,486.2800
26.2400,501.3925
26.2500,473.9100
26.2600,461.1800
26.2700,480.5575
26.2800,544.9525
26.2900,567.9925
26.3000,526.0650
26.3100,552.1900
26.3200,542.0475
26.3300,566.2875
26.3400,558.3275
26.3500,515.8475
26.3600,542.0425
26.3700,619.4250
26.3800,583.4775
26.3900,611.5275
26.4000,576.0350
26.4100,639.5925
26.4200,658.6900
26.4300,529.7550
26.4400,562.0500
26.4500,575.7775
26.4600,544.9175
26.4700,577.4875
26.4800,548.7625
26.4900,526.0625
26.5000,494.5775
26.5100,464.1425
26.5200,503.0550
26.5300,512.8675
26.5400,464.6300
26.5500,428.0425
26.5600,420.4725
26.5700,434.2850
26.5800,470.9175
26.5900,439.5950
26.6000,450.4275
26.6100,424.8700
26.6200,445.5925
26.6300,458.5225
26.6400,420.2650
26.6500,447.3600
26.6600,467.4975
26.6700,416.2250
26.6800,426.4600
26.6900,441.3000
26.7000,468.7325
26.7100,436.6800
26.7200,455.3525
26.7300,496.5850
26.7400,469.5950
26.7500,407.1550
26.7600,382.6350
26.7700,391.2150
26.7800,407.3375
26.7900,429.5875
26.8000,455.6975
26.8100,423.6925
26.8200,433.4075
26.8300,408.7925
26.8400,472.9550
26.8500,472.7550
26.8600,422.7475
26.8700,443.8775
26.8800,455.5475
26.8900,431.7225
26.9000,404.5175
26.9100,413.8300
26.9200,436.0100
26.9300,401.3500
26.9400,404.3650
26.9500,431.4650
26.9600,442.1725
26.9700,476.3350
26.9800,458.6075
26.9900,461.5675
27.0000,460.5925
27.0100,460.0000
27.0200,470.9475
27.0300,459.6625
27.0400,478.5175
27.0500,458.7750
27.0600,445.1550
27.0700,440.6100
27.0800,467.2075
27.0900,484.2050
27.1000,483.9525
27.1100,450.7825
27.1200,437.9125
27.1300,463.7400
27.1400,488.9325
27.1500,485.2275
27.1600,499.5275
27.1700,508.7275
27.1800,528.8575
27.1900,519.8775
27.2000,508.6000
27.2100,514.7250
27.2200,573.0125
27.2300,522.3350
27.2400,560.2225
27.2500,576.0075
27.2600,582.0125
27.2700,639.3975
27.2800,626.6625
27.2900,590.6925
27.3000,647.2150
27.3100,711.1950
27.3200,771.1475
27.3300,908.0575
27.3400,1056.6450
27.3500,1279.9950
27.3600,1467.5750
27.3700,1709.4850
27.3800,2096.0100
27.3900,2486.6600
27.4000,2819.6200
27.4100,3041.9700
27.4200,3333.1425
27.4300,3465.6725
27.4400,3535.8175
27.4500,3552.6225
27.4600,3720.9400
27.4700,3719.5750
27.4800,3735.4150
27.4900,3672.8425
27.5000,3512.4950
27.5100,3267.5025
27.5200,3103.2875
27.5300,2888.7275
27.5400,2657.4450
27.5500,2375.7350
27.5600,2123.3725
27.5700,1891.3325
27.5800,1731.3600
27.5900,1547.5425
27.6000,1343.2900
27.6100,1188.3625
27.6200,1076.8125
27.6300,958.1225
27.6400,801.4700
27.6500,747.9250
27.6600,720.2450
27.6700,654.3950
27.6800,636.6675
27.6900,639.2250
27.7000,573.5825
27.7100,553.3325
27.7200,573.7275
27.7300,536.7100
27.7400,515.7025
27.7500,526.0400
27.7600,530.0000
27.7700,545.2150
27.7800,555.0650
27.7900,559.1975
27.8000,539.7775
27.8100,553.5325
27.8200,507.0325
27.8300,492.5200
27.8400,553.7400
27.8500,560.7625
27.8600,534.0625
27.8700,453.9075
27.8800,467.5925
27.8900,522.5600
27.9000,474.1450
27.9100,483.3125
27.9200,495.8300
27.9300,504.1450
27.9400,506.6675
27.9500,481.7925
27.9600,473.3325
27.9700,495.6725
27.9800,510.7725
27.9900,545.5300
28.0000,573.9850
28.0100,528.1025
28.0200,542.0925
28.0300,548.4025
28.0400,539.2775
28.0500,509.6000
28.0600,487.7100
28.0700,507.8850
28.0800,528.9300
28.0900,501.4850
28.1000,509.5775
28.1100,543.5550
28.1200,546.0075
28.1300,540.8950
28.1400,542.4375
28.1500,533.5975
28.1600,554.3100
28.1700,573.0475
28.1800,562.1125
28.1900,561.5125
28.2000,551.2325
28.2100,534.5775
28.2200,551.7350
28.2300,613.0700
28.2400,606.8275
28.2500,584.6325
28.2600,582.4050
28.2700,585.7350
28.2800,565.0775
28.2900,602.1950
28.3000,641.5425
28.3100,661.9550
28.3200,640.3975
28.3300,649.0825
28.3400,699.5575
28.3500,735.7075
28.3600,769.4850
28.3700,836.9925
28.3800,862.3725
28.3900,943.8900
28.4000,1045.3000
28.4100,1139.5250
28.4200,1254.0350
28.4300,1455.1025
28.4400,1692.9600
28.4500,1972.7725
28.4600,2438.4400
28.4700,3108.5025
28.4800,3757.1925
28.4900,4300.7450
28.5000,4914.2775
28.5100,5430.1875
28.5200,5480.2925
28.5300,5800.0950
28.5400,6123.3575
28.5500,6278.0900
28.5600,6408.6050
28.5700,6287.5275
28.5800,6174.9375
28.5900,6124.2475
28.6000,6029.0450
28.6100,5780.7850
28.6200,5407.4450
28.6300,5121.9875
28.6400,4753.0100
28.6500,4357.8500
28.6600,4072.3275
28.6700,3806.2500
28.6800,3564.1775
28.6900,3344.5600
28.7000,3153.2150
28.7100,3050.9975
28.7200,2886.3125
28.7300,2580.8000
28.7400,2244.7350
28.7500,2160.4550
28.7600,2151.8400
28.7700,2095.7200
28.7800,2082.3925
28.7900,2025.5925
28.8000,2003.4450
28.8100,2205.2500
28.8200,2469.0450
28.8300,2651.3075
28.8400,2821.4225
28.8500,3073.1450
28.8600,3164.4225
28.8700,3118.5225
28.8800,3154.8500
28.8900,3277.2100
28.9000,3437.1900
28.9100,3488.8750
28.9200,3426.5350
28.9300,3474.5225
28.9400,3446.6800
28.9500,3522.0675
28.9600,3521.2575
28.9700,3482.2650
28.9800,3337.3725
28.9900,3085.5850
29.0000,2913.9300
29.0100,2787.4175
29.0200,2587.1150
29.0300,2403.3800
29.0400,2380.7275
29.0500,2295.8250
29.0600,2070.3600
29.0700,1912.2075
29.0800,1739.0625
29.0900,1518.3250
29.1000,1363.7425
29.1100,1255.8725
29.1200,1161.3175
29.1300,1036.6575
29.1400,980.1625
29.1500,937.6900
29.1600,901.5275
29.1700,882.5325
29.1800,891.7675
29.1900,869.8350
29.2000,870.5500
29.2100,933.7325
29.2200,997.6800
29.2300,1065.9775
29.2400,1121.1700
29.2500,1175.1625
29.2600,1297.0550
29.2700,1376.8000
29.2800,1372.9550
29.2900,1380.3575
29.3000,1470.7575
29.3100,1546.3825
29.3200,1571.8125
29.3300,1576.6675
29.3400,1549.1775
29.3500,1480.5375
29.3600,1386.7275
29.3700,1373.1700
29.3800,1386.6675
29.3900,1294.2200
29.4000,1237.9025
29.4100,1186.3700
29.4200,1068.7600
29.4300,949.7750
29.4400,874.5100
29.4500,844.9925
29.4600,783.7775
29.4700,743.7600
29.4800,731.6925
29.4900,662.3650
29.5000,627.4775
29.5100,646.5525
29.5200,650.4675
29.5300,648.7300
29.5400,660.3050
29.5500,676.9575
29.5600,660.7225
29.5700,632.2975
29.5800,631.5350
29.5900,599.8125
29.6000,595.0700
29.6100,602.5825
29.6200,563.2900
29.6300,542.0375
29.6400,529.0950
29.6500,509.8425
29.6600,523.6200
29.6700,540.7200
29.6800,547.3800
29.6900,562.1250
29.7000,582.1075
29.7100,571.8625
29.7200,551.9500
29.7300,580.8375
29.7400,583.2600
29.7500,551.9575
29.7600,568.0275
29.7700,590.6650
29.7800,575.3625
29.7900,595.2375
29.8000,610.6925
29.8100,576.8375
29.8200,570.5675
29.8300,605.7825
29.8400,591.6450
29.8500,577.9125
29.8600,612.9625
29.8700,629.3875
29.8800,668.0350
29.8900,690.7650
29.9000,643.4475
29.9100,638.8375
29.9200,684.0950
29.9300,679.8550
29.9400,686.7800
29.9500,709.1875
29.9600,763.9950
29.9700,784.4325
29.9800,835.5150
29.9900,940.1550
30.0000,958.1425
30.0100,930.3250
30.0200,1025.7525
30.0300,1146.3150
30.0400,1191.5625
30.0500,1240.4125
30.0600,1379.5400
30.0700,1577.0650
30.0800,1736.1575
30.0900,1912.4800
30.1000,2173.4200
30.1100,2569.0850
30.1200,3076.8225
30.1300,3630.1875
30.1400,4217.3050
30.1500,4916.9375
30.1600,5670.7025
30.1700,6292.7825
30.1800,6738.7600
30.1900,6976.9275
30.2000,7116.2450
30.2100,7125.4300
30.2200,7130.3100
30.2300,7301.7650
30.2400,7500.3525
30.2500,7464.8125
30.2600,7221.1900
30.2700,7042.5625
30.2800,6862.1375
30.2900,6435.2125
30.3000,5813.6550
30.3100,5238.0375
30.3200,4837.3600
30.3300,4476.5550
30.3400,3941.6800
30.3500,3620.1350
30.3600,3523.3500
30.3700,3332.4175
30.3800,3144.3700
30.3900,2988.3150
30.4000,2942.6300
30.4100,3052.6000
30.4200,3223.7450
30.4300,3361.3575
30.4400,3570.4975
30.4500,3686.6725
30.4600,3753.4900
30.4700,3970.1350
30.4800,4178.3900
30.4900,4168.6850
30.5000,3997.1525
30.5100,3919.0075
30.5200,4020.2175
30.5300,4098.2025
30.5400,3981.8700
30.5500,3906.6175
30.5600,3989.2600
30.5700,3898.6900
30.5800,3689.5300
30.5900,3677.2000
30.6000,3577.1150
30.6100,3322.6300
30.6200,3143.9975
30.6300,3065.8425
30.6400,2913.7350
30.6500,2678.8425
30.6600,2546.5275
30.6700,2425.1950
30.6800,2299.4225
30.6900,2165.2975
30.7000,2013.4575
30.7100,1837.9350
30.7200,1705.4000
30.7300,1664.3125
30.7400,1569.9375
30.7500,1413.2525
30.7600,1291.5525
30.7700,1274.2550
30.7800,1279.3675
30.7900,1273.6975
30.8000,1262.6400
30.8100,1248.5000
30.8200,1323.8200
30.8300,1396.8650
30.8400,1482.1725
30.8500,1657.6300
30.8600,1772.1275
30.8700,1815.5875
30.8800,1843.4075
30.8900,1856.8700
30.9000,1832.7075
30.9100,1779.6575
30.9200,1758.3075
30.9300,1717.7975
30.9400,1663.1275
30.9500,1612.9725
30.9600,1549.7250
30.9700,1476.3375
30.9800,1374.6475
30.9900,1268.1200
31.0000,1179.8875
31.0100,1129.9875
31.0200,1103.3400
31.0300,1051.7350
31.0400,961.8600
31.0500,835.3675
31.0600,728.5675
31.0700,670.1950
31.0800,626.8650
31.0900,621.4950
31.1000,639.9575
31.1100,628.5525
31.1200,585.4600
31.1300,541.9350
31.1400,534.8375
31.1500,538.4375
31.1600,515.4150
31.1700,475.5250
31.1800,469.5700
31.1900,489.9075
31.2000,498.1875
31.2100,490.4075
31.2200,484.7325
31.2300,499.7750
31.2400,490.5900
31.2500,473.3325
31.2600,495.7675
31.2700,486.4025
31.2800,464.3750
31.2900,462.4600
31.3000,456.0675
31.3100,490.6600
31.3200,511.7475
31.3300,490.9925
31.3400,481.0700
31.3500,501.2275
31.3600,511.5750
31.3700,507.0400
31.3800,503.1425
31.3900,512.9400
31.4000,530.9575
31.4100,519.8925
31.4200,480.8525
31.4300,463.5525
31.4400,460.0000
31.4500,480.1800
31.4600,480.0900
31.4700,447.1450
31.4800,460.0750
31.4900,480.2500
31.5000,461.2775
31.5100,451.0150
31.5200,453.8650
31.5300,443.6050
31.5400,441.5275
31.5500,446.3850
31.5600,457.6150
31.5700,460.5850
31.5800,460.9225
31.5900,470.0000
31.6000,473.0250
31.6100,472.1375
31.6200,469.6825
31.6300,464.3050
31.6400,435.3075
31.6500,447.8200
31.6600,488.5025
31.6700,476.2075
31.6800,478.2475
31.6900,495.1775
31.7000,497.7925
31.7100,492.9475
31.7200,506.6575
31.7300,550.3475
31.7400,539.7225
31.7500,501.1625
31.7600,500.2925
31.7700,501.5900
31.7800,470.5500
31.7900,470.4750
31.8000,502.5075
31.8100,492.5125
31.8200,490.3650
31.8300,516.6675
31.8400,499.2750
31.8500,460.7525
31.8600,457.3300
31.8700,454.0525
31.8800,409.9275
31.8900,415.3375
31.9000,450.0350
31.9100,450.4550
31.9200,440.4750
31.9300,450.0000
31.9400,435.7700
31.9500,429.4500
31.9600,450.9200
31.9700,426.9475
31.9800,375.3650
31.9900,378.3300
32.0000,411.7775
32.0100,417.7150
32.0200,402.9900
32.0300,410.1275
32.0400,440.3175
32.0500,438.8475
32.0600,430.2925
32.0700,440.0000
32.0800,435.8400
32.0900,421.6975
32.1000,396.1900
32.1100,367.0175
32.1200,378.0975
32.1300,417.4525
32.1400,426.0750
32.1500,430.0000
32.1600,420.4425
32.1700,406.6675
32.1800,417.5475
32.1900,430.6175
32.2000,422.6025
32.2100,415.3150
32.2200,406.5850
32.2300,402.0550
32.2400,419.4100
32.2500,434.6750
32.2600,433.9875
32.2700,443.3650
32.2800,449.9950
32.2900,431.3325
32.3000,426.6900
32.3100,408.7100
32.3200,392.6950
32.3300,403.8375
32.3400,423.4100
32.3500,422.5425
32.3600,420.9100
32.3700,380.9425
32.3800,365.8200
32.3900,387.8300
32.4000,406.5125
32.4100,429.6650
32.4200,453.8925
32.4300,445.7575
32.4400,428.5025
32.4500,449.5625
32.4600,486.7300
32.4700,517.1850
32.4800,528.4600
32.4900,541.7825
32.5000,565.3175
32.5100,620.5725
32.5200,654.7450
32.5300,638.8800
32.5400,677.3875
32.5500,719.1925
32.5600,711.9850
32.5700,714.7225
32.5800,706.0525
32.5900,635.8400
32.6000,647.5025
32.6100,674.9725
32.6200,708.7175
32.6300,688.5400
32.6400,631.2400
32.6500,638.2825
32.6600,617.0325
32.6700,559.2725
32.6800,538.0600
32.6900,514.7450
32.7000,513.4675
32.7100,519.5625
32.7200,496.0950
32.7300,506.6675
32.7400,505.4525
32.7500,493.6425
32.7600,474.2500
32.7700,470.0000
32.7800,454.3525
32.7900,430.2700
32.8000,435.4675
32.8100,436.9200
32.8200,450.4925
32.8300,455.0000
32.8400,437.6250
32.8500,421.4800
32.8600,388.1725
32.8700,385.5500
32.8800,421.1775
32.8900,430.3825
32.9000,424.5750
32.9100,394.6800
32.9200,406.8350
32.9300,426.1450
32.9400,447.6750
32.9500,439.8550
32.9600,420.6075
32.9700,417.4450
32.9800,470.4875
32.9900,487.4750
33.0000,468.8525
33.0100,459.8025
33.0200,440.9600
33.0300,430.0000
33.0400,428.8650
33.0500,436.8700
33.0600,454.4050
33.0700,446.6150
33.0800,440.0000
33.0900,455.7250
33.1000,487.7875
33.1100,467.6375
33.1200,445.6425
33.1300,495.5650
33.1400,491.1225
33.1500,496.5550
33.1600,575.5250
33.1700,581.1550
33.1800,579.9000
33.1900,585.7325
33.2000,533.6750
33.2100,491.0350
33.2200,507.6275
33.2300,533.1175
33.2400,527.3050
33.2500,484.1525
33.2600,516.3800
33.2700,533.4375
33.2800,515.9250
33.2900,497.6200
33.3000,506.6675
33.3100,499.2025
33.3200,478.0150
33.3300,474.0950
33.3400,498.4700
33.3500,514.5550
33.3600,502.6250
33.3700,505.5850
33.3800,526.7450
33.3900,492.7450
33.4000,515.4200
33.4100,537.6925
33.4200,555.9025
33.4300,498.6075
33.4400,473.3325
33.4500,498.0650
33.4600,556.4175
33.4700,575.6375
33.4800,611.5150
33.4900,611.6375
33.5000,598.4925
33.5100,680.5900
33.5200,746.3250
33.5300,814.7450
33.5400,881.6850
33.5500,1005.3900
33.5600,1041.3500
33.5700,1070.9950
33.5800,1109.6300
33.5900,1156.9075
33.6000,1206.5875
33.6100,1201.3075
33.6200,1122.4775
33.6300,1103.5575
33.6400,1120.9825
33.6500,1134.1050
33.6600,1150.2350
33.6700,1118.8750
33.6800,1106.8000
33.6900,1126.2400
33.7000,1120.7700
33.7100,1094.8200
33.7200,1132.6200
33.7300,1228.3025
33.7400,1321.0075
33.7500,1404.3450
33.7600,1611.7775
33.7700,1897.8300
33.7800,2138.5100
33.7900,2437.6050
33.8000,2790.2375
33.8100,3101.4050
33.8200,3256.3750
33.8300,3242.1300
33.8400,3302.1825
33.8500,3361.8175
33.8600,3294.6425
33.8700,3221.8450
33.8800,3213.7800
33.8900,3157.0550
33.9000,3087.5125
33.9100,3060.5950
33.9200,3013.2850
33.9300,2828.6075
33.9400,2557.5475
33.9500,2332.2350
33.9600,2119.0650
33.9700,1951.6650
33.9800,1893.1525
33.9900,1748.6100
34.0000,1541.7650
34.0100,1530.4075
34.0200,1561.8925
34.0300,1479.2175
34.0400,1479.5850
34.0500,1569.8250
34.0600,1519.4550
34.0700,1520.0975
34.0800,1489.8550
34.0900,1492.4500
34.1000,1357.1575
34.1100,1340.3425
34.1200,1366.5625
34.1300,1342.9575
34.1400,1305.0425
34.1500,1306.5925
34.1600,1266.9450
34.1700,1182.5400
34.1800,1195.9100
34.1900,1205.7575
34.2000,1185.8500
34.2100,1151.5050
34.2200,1027.5000
34.2300,1041.6400
34.2400,1074.1800
34.2500,1060.0550
34.2600,1030.9375
34.2700,1007.4400
34.2800,1009.3550
34.2900,982.3800
34.3000,1003.2550
34.3100,1019.8225
34.3200,1038.3825
34.3300,1038.9775
34.3400,1067.1150
34.3500,1110.4150
34.3600,1159.3050
34.3700,1223.5350
34.3800,1268.2550
34.3900,1260.6775
34.4000,1242.8675
34.4100,1345.7500
34.4200,1457.2375
34.4300,1582.0600
34.4400,1801.2175
34.4500,1816.6975
34.4600,1951.4150
34.4700,1977.0575
34.4800,1788.4625
34.4900,1808.6075
34.5000,1896.3875
34.5100,1908.9500
34.5200,1923.4925
34.5300,1930.7950
34.5400,1863.8600
34.5500,1810.2400
34.5600,1767.6875
34.5700,1715.7850
34.5800,1601.7125
34.5900,1434.4450
34.6000,1346.3325
34.6100,1287.9300
34.6200,1187.2725
34.6300,1120.5500
34.6400,1137.9600
34.6500,1018.9800
34.6600,998.9950
34.6700,953.0675
34.6800,842.6150
34.6900,821.3925
34.7000,746.9150
34.7100,726.8875
34.7200,727.2550
34.7300,674.3550
34.7400,651.2250
34.7500,630.0225
34.7600,569.5275
34.7700,522.3475
34.7800,494.0275
34.7900,494.5950
34.8000,488.0425
34.8100,496.7625
34.8200,510.0000
34.8300,503.1950
34.8400,475.3100
34.8500,475.4050
34.8600,483.2050
34.8700,432.0125
34.8800,438.6650
34.8900,441.3200
34.9000,465.3750
34.9100,434.6550
34.9200,448.5550
34.9300,476.1200
34.9400,439.4825
34.9500,408.0475
34.9600,401.2975
34.9700,412.4775
34.9800,434.0950
34.9900,427.1775
35.0000,442.0575
35.0100,437.9375
35.0200,444.6000
35.0300,433.6000
35.0400,372.7575
35.0500,413.3325
35.0600,417.0725
35.0700,427.1250
35.0800,393.8175
35.0900,371.5925
35.1000,393.3325
35.1100,398.8325
35.1200,420.9000
35.1300,415.4525
35.1400,439.3975
35.1500,431.2575
35.1600,404.2725
35.1700,399.8900
35.1800,430.0000
35.1900,429.4100
35.2000,428.4325
35.2100,439.5975
35.2200,451.0000
35.2300,432.4450
35.2400,397.8250
35.2500,407.9425
35.2600,436.3100
35.2700,459.8125
35.2800,432.3550
35.2900,459.4325
35.3000,449.9000
35.3100,411.0525
35.3200,383.3325
35.3300,386.6725
35.3400,403.3325
35.3500,401.6800
35.3600,390.5875
35.3700,386.5050
35.3800,426.8725
35.3900,375.0425
35.4000,372.5975
35.4100,402.2600
35.4200,402.5425
35.4300,426.4200
35.4400,398.4700
35.4500,439.1175
35.4600,414.0450
35.4700,398.4350
35.4800,395.7150
35.4900,424.5975
35.5000,411.7900
35.5100,405.8950
35.5200,416.9425
35.5300,409.6375
35.5400,465.3525
35.5500,465.6150
35.5600,400.8350
35.5700,397.1125
35.5800,463.1000
35.5900,495.5675
35.6000,470.0000
35.6100,473.9000
35.6200,495.2125
35.6300,491.9750
35.6400,525.7350
35.6500,540.4775
35.6600,541.4325
35.6700,532.8375
35.6800,551.4125
35.6900,565.6150
35.7000,601.8625
35.7100,606.8500
35.7200,568.5100
35.7300,580.9175
35.7400,593.5025
35.7500,632.5875
35.7600,608.4700
35.7700,634.8000
35.7800,734.9075
35.7900,774.6525
35.8000,829.3125
35.8100,856.3175
35.8200,920.0000
35.8300,919.5650
35.8400,911.0575
35.8500,878.0525
35.8600,912.9850
35.8700,928.2450
35.8800,893.7550
35.8900,886.1850
35.9000,813.7500
35.9100,814.5950
35.9200,800.4125
35.9300,802.5150
35.9400,797.4800
35.9500,799.6925
35.9600,762.0700
35.9700,674.0025
35.9800,626.8200
35.9900,606.8875
36.0000,630.1925
36.0100,601.2050
36.0200,554.9600
36.0300,511.2725
36.0400,473.0625
36.0500,496.6675
36.0600,498.9350
36.0700,516.2900
36.0800,508.1100
36.0900,466.6675
36.1000,469.9825
36.1100,492.2750
36.1200,451.2150
36.1300,414.2500
36.1400,475.2325
36.1500,461.5525
36.1600,441.7125
36.1700,401.7575
36.1800,417.0150
36.1900,420.0000
36.2000,421.7200
36.2100,434.9575
36.2200,417.2850
36.2300,392.9975
36.2400,393.3450
36.2500,423.9975
36.2600,428.3525
36.2700,414.9700
36.2800,426.7500
36.2900,396.9900
36.3000,402.5600
36.3100,420.6300
36.3200,365.2250
36.3300,383.9600
36.3400,391.2425
36.3500,404.8750
36.3600,420.0000
36.3700,422.7300
36.3800,445.1850
36.3900,396.0700
36.4000,390.8875
36.4100,400.0000
36.4200,402.9125
36.4300,437.0900
36.4400,472.0825
36.4500,425.0375
36.4600,446.1500
36.4700,474.9900
36.4800,456.9425
36.4900,462.7450
36.5000,491.1550
36.5100,472.6025
36.5200,540.0000
36.5300,542.6500
36.5400,578.0600
36.5500,630.2100
36.5600,598.2325
36.5700,657.6875
36.5800,669.7475
36.5900,662.6550
36.6000,616.5625
36.6100,653.9600
36.6200,614.6400
36.6300,547.8725
36.6400,568.5875
36.6500,640.9225
36.6600,693.6225
36.6700,648.9300
36.6800,588.8525
36.6900,570.3825
36.7000,529.7750
36.7100,528.0000
36.7200,541.3900
36.7300,464.9275
36.7400,442.1500
36.7500,475.0350
36.7600,496.0025
36.7700,438.3300
36.7800,462.1000
36.7900,442.7225
36.8000,432.7300
36.8100,421.5475
36.8200,396.2750
36.8300,442.5575
36.8400,428.4675
36.8500,402.9550
36.8600,396.2925
36.8700,390.1850
36.8800,394.2425
36.8900,409.1025
36.9000,393.5100
36.9100,396.6675
36.9200,398.3925
36.9300,431.5325
36.9400,458.6575
36.9500,431.8450
36.9600,403.9850
36.9700,419.0775
36.9800,466.1925
36.9900,452.6100
37.0000,371.3825
37.0100,401.0600
37.0200,422.4400
37.0300,405.0925
37.0400,443.3325
37.0500,444.4700
37.0600,468.1850
37.0700,426.9400
37.0800,434.2775
37.0900,457.4625
37.1000,475.4950
37.1100,446.1550
37.1200,433.5850
37.1300,438.5225
37.1400,400.1200
37.1500,402.5025
37.1600,382.4400
37.1700,450.7975
37.1800,473.1100
37.1900,466.3400
37.2000,456.0250
37.2100,437.8150
37.2200,472.9250
37.2300,461.0975
37.2400,497.3500
37.2500,520.6650
37.2600,543.0550
37.2700,531.8850
37.2800,479.7350
37.2900,469.7425
37.3000,461.1700
37.3100,507.6400
37.3200,547.6925
37.3300,590.1525
37.3400,597.0375
37.3500,613.1175
37.3600,604.0975
37.3700,640.1350
37.3800,646.7975
37.3900,655.0225
37.4000,743.9350
37.4100,776.9575
37.4200,794.7800
37.4300,880.5325
37.4400,913.7925
37.4500,944.7950
37.4600,1044.5850
37.4700,1134.2600
37.4800,1204.4600
37.4900,1294.0425
37.5000,1354.7450
37.5100,1481.6725
37.5200,1641.0725
37.5300,1751.0575
37.5400,1868.5350
37.5500,2089.9225
37.5600,2080.6050
37.5700,2167.1900
37.5800,2250.9525
37.5900,2419.6900
37.6000,2355.3875
37.6100,2053.6500
37.6200,2143.5700
37.6300,2226.4950
37.6400,2146.8550
37.6500,2276.6425
37.6600,2246.6550
37.6700,2110.0825
37.6800,2036.7625
37.6900,2049.9725
37.7000,1880.4550
37.7100,1790.3025
37.7200,1809.9200
37.7300,1746.9675
37.7400,1650.5250
37.7500,1683.1300
37.7600,1779.3425
37.7700,1684.0575
37.7800,1699.8625
37.7900,1670.2650
37.8000,1716.2200
37.8100,1825.5400
37.8200,1925.5750
37.8300,1995.8550
37.8400,2098.7300
37.8500,2116.4500
37.8600,2346.8125
37.8700,2376.2850
37.8800,2425.9150
37.8900,2548.0625
37.9000,2612.2950
37.9100,2551.0825
37.9200,2415.7600
37.9300,2403.5175
37.9400,2498.1500
37.9500,2473.8625
37.9600,2310.0825
37.9700,2274.0400
37.9800,2191.8200
37.9900,2170.4500
38.0000,2013.7150
38.0100,1863.5850
38.0200,1775.4625
38.0300,1698.6025
38.0400,1514.8425
38.0500,1367.2375
38.0600,1353.6075
38.0700,1259.3700
38.0800,1204.8625
38.0900,1080.3825
38.1000,995.8350
38.1100,964.2550
38.1200,950.4175
38.1300,856.4300
38.1400,869.4550
38.1500,882.8875
38.1600,767.4225
38.1700,734.3750
38.1800,762.2700
38.1900,776.1850
38.2000,783.0875
38.2100,821.8350
38.2200,845.7775
38.2300,929.9700
38.2400,910.9200
38.2500,1089.1725
38.2600,1167.0050
38.2700,1192.3650
38.2800,1314.6575
38.2900,1418.9050
38.3000,1515.7925
38.3100,1491.3250
38.3200,1544.1250
38.3300,1623.0250
38.3400,1569.4400
38.3500,1534.8950
38.3600,1549.2075
38.3700,1600.7625
38.3800,1568.4600
38.3900,1531.8175
38.4000,1485.6775
38.4100,1524.4600
38.4200,1434.9850
38.4300,1319.4275
38.4400,1253.3500
38.4500,1366.7250
38.4600,1288.2150
38.4700,1119.5200
38.4800,1176.1100
38.4900,1101.3550
38.5000,967.7800
38.5100,963.1425
38.5200,928.8025
38.5300,838.8325
38.5400,789.4475
38.5500,836.7875
38.5600,833.7400
38.5700,758.2600
38.5800,712.6975
38.5900,734.9900
38.6000,696.0875
38.6100,683.9750
38.6200,633.4625
38.6300,583.2775
38.6400,598.6750
38.6500,596.8900
38.6600,618.4225
38.6700,585.8350
38.6800,608.1625
38.6900,578.9850
38.7000,554.9725
38.7100,612.1775
38.7200,613.5725
38.7300,560.7575
38.7400,609.2050
38.7500,659.6575
38.7600,626.3000
38.7700,623.3325
38.7800,632.5775
38.7900,679.5250
38.8000,686.4100
38.8100,732.7925
38.8200,758.1775
38.8300,873.6150
38.8400,1107.3325
38.8500,1286.1150
38.8600,1480.7825
38.8700,1655.8850
38.8800,2083.0625
38.8900,2401.2925
38.9000,2603.8775
38.9100,2797.0825
38.9200,2852.9950
38.9300,2878.0075
38.9400,2764.2300
38.9500,2835.5325
38.9600,2685.1375
38.9700,2666.9600
38.9800,2739.5750
38.9900,2637.3825
39.0000,2620.6000
39.0100,2641.2200
39.0200,2479.7575
39.0300,2445.1725
39.0400,2225.5475
39.0500,1955.4775
39.0600,1890.7350
39.0700,1708.5875
39.0800,1518.0800
39.0900,1352.3150
39.1000,1252.3375
39.1100,1180.1325
39.1200,1158.2950
39.1300,1066.5075
39.1400,1083.6950
39.1500,984.6350
39.1600,937.3475
39.1700,864.4100
39.1800,865.6500
39.1900,929.5050
39.2000,1047.3025
39.2100,1140.6750
39.2200,1179.8575
39.2300,1237.0400
39.2400,1359.6125
39.2500,1477.6100
39.2600,1555.4975
39.2700,1536.5575
39.2800,1530.3600
39.2900,1494.3500
39.3000,1513.7500
39.3100,1504.8000
39.3200,1470.7250
39.3300,1416.3100
39.3400,1454.4000
39.3500,1448.1675
39.3600,1437.8000
39.3700,1359.8725
39.3800,1332.2925
39.3900,1229.7225
39.4000,1178.3525
39.4100,1170.3875
39.4200,1046.3975
39.4300,965.3025
39.4400,988.9925
39.4500,966.9050
39.4600,939.8575
39.4700,971.8525
39.4800,953.2250
39.4900,1011.4875
39.5000,1043.4075
39.5100,1178.2325
39.5200,1342.7450
39.5300,1290.3475
39.5400,1390.8575
39.5500,1590.3250
39.5600,1704.0600
39.5700,1783.6175
39.5800,1743.8825
39.5900,1666.9050
39.6000,1645.0475
39.6100,1596.8950
39.6200,1650.9075
39.6300,1746.9475
39.6400,1699.1825
39.6500,1666.8475
39.6600,1715.3875
39.6700,1685.7650
39.6800,1602.0325
39.6900,1540.9450
39.7000,1547.7500
39.7100,1342.5425
39.7200,1117.0925
39.7300,1063.6500
39.7400,988.1250
39.7500,1025.5050
39.7600,1013.2375
39.7700,880.9075
39.7800,808.4000
39.7900,728.3875
39.8000,665.1425
39.8100,673.8275
39.8200,690.9575
39.8300,661.9150
39.8400,611.0025
39.8500,537.7400
39.8600,518.1175
39.8700,468.2550
39.8800,528.2950
39.8900,522.9375
39.9000,508.6350
39.9100,500.9875
39.9200,497.1625
39.9300,519.3475
39.9400,503.5025
39.9500,440.5475
39.9600,413.0250
39.9700,418.4800
39.9800,436.9500
39.9900,411.7725
40.0000,403.8450
40.0100,417.4250
40.0200,428.4500
40.0300,430.0000
40.0400,415.9375
40.0500,413.3325
40.0600,438.6075
40.0700,437.7200
40.0800,411.4300
40.0900,417.8750
40.1000,403.2000
40.1100,439.1700
40.1200,443.8700
40.1300,437.7450
40.1400,419.9175
40.1500,478.0375
40.1600,437.0375
40.1700,432.2375
40.1800,438.9000
40.1900,462.2500
40.2000,472.2250
40.2100,465.0025
40.2200,435.5825
40.2300,482.6900
40.2400,460.0800
40.2500,447.7950
40.2600,466.0350
40.2700,486.5900
40.2800,501.0525
40.2900,522.6600
40.3000,468.7325
40.3100,467.6925
40.3200,527.8475
40.3300,573.0325
40.3400,577.2500
40.3500,562.9250
40.3600,595.7050
40.3700,592.3550
40.3800,611.9400
40.3900,627.6275
40.4000,630.0000
40.4100,564.3275
40.4200,610.1550
40.4300,612.4050
40.4400,631.8425
40.4500,620.2975
40.4600,624.8450
40.4700,667.5300
40.4800,657.6125
40.4900,666.9350
40.5000,686.3075
40.5100,662.8400
40.5200,653.9525
40.5300,675.0300
40.5400,688.1300
40.5500,671.0450
40.5600,693.7250
40.5700,648.6250
40.5800,728.5325
40.5900,820.1975
40.6000,882.5300
40.6100,931.0750
40.6200,883.4300
40.6300,969.5975
40.6400,1100.9275
40.6500,1223.4275
40.6600,1362.1575
40.6700,1572.4975
40.6800,1815.1200
40.6900,2109.8750
40.7000,2378.8675
40.7100,2579.8450
40.7200,2702.2275
40.7300,2918.3750
40.7400,3081.4675
40.7500,3027.2975
40.7600,3014.6650
40.7700,2947.4075
40.7800,2804.8950
40.7900,2744.0750
40.8000,2662.2475
40.8100,2648.6450
40.8200,2689.8075
40.8300,2668.1775
40.8400,2501.0075
40.8500,2356.7325
40.8600,2216.2275
40.8700,2062.4025
40.8800,1818.6450
40.8900,1615.4975
40.9000,1479.0625
40.9100,1358.4375
40.9200,1193.7300
40.9300,1125.0825
40.9400,1077.2150
40.9500,956.2875
40.9600,832.1275
40.9700,825.0350
40.9800,788.0450
40.9900,753.0850
41.0000,675.9750
41.0100,638.3525
41.0200,596.7325
41.0300,589.2800
41.0400,582.1700
41.0500,556.5250
41.0600,578.6700
41.0700,578.8525
41.0800,542.8350
41.0900,517.7300
41.1000,515.9325
41.1100,480.3150
41.1200,477.7850
41.1300,490.3700
41.1400,457.0625
41.1500,451.8450
41.1600,468.8550
41.1700,442.3150
41.1800,399.7550
41.1900,431.2950
41.2000,469.1250
41.2100,494.7075
41.2200,489.7000
41.2300,409.4700
41.2400,422.6650
41.2500,482.1500
41.2600,473.5600
41.2700,482.0600
41.2800,489.2300
41.2900,477.1925
41.3000,427.2600
41.3100,444.0250
41.3200,461.0000
41.3300,468.4400
41.3400,485.3125
41.3500,482.3500
41.3600,474.9050
41.3700,488.6100
41.3800,536.5850
41.3900,557.6275
41.4000,570.1625
41.4100,553.0250
41.4200,556.8125
41.4300,570.1375
41.4400,563.2025
41.4500,580.2450
41.4600,599.3100
41.4700,573.0100
41.4800,558.2825
41.4900,533.9575
41.5000,541.7950
41.5100,581.9375
41.5200,595.8500
41.5300,626.8525
41.5400,614.0450
41.5500,626.7600
41.5600,600.7075
41.5700,597.5225
41.5800,625.0600
41.5900,600.7800
41.6000,539.9575
41.6100,495.8300
41.6200,519.1450
41.6300,532.4975
41.6400,510.8825
41.6500,475.9150
41.6600,491.5750
41.6700,477.6000
41.6800,447.6175
41.6900,459.8800
41.7000,459.2175
41.7100,469.0725
41.7200,468.3750
41.7300,486.4875
41.7400,490.8575
41.7500,450.4200
41.7600,453.9700
41.7700,435.3000
41.7800,394.5800
41.7900,400.5975
41.8000,416.5250
41.8100,415.0750
41.8200,423.1750
41.8300,421.7500
41.8400,427.3700
41.8500,476.6450
41.8600,441.8175
41.8700,474.8100
41.8800,461.4900
41.8900,476.9225
41.9000,476.8850
41.9100,492.8850
41.9200,517.0950
41.9300,528.2125
41.9400,522.6850
41.9500,505.3825
41.9600,512.1725
41.9700,502.0700
41.9800,499.0975
41.9900,512.1450
42.0000,523.9475
42.0100,504.8400
42.0200,494.2425
42.0300,500.5975
42.0400,544.4700
42.0500,564.8350
42.0600,564.2500
42.0700,522.2925
42.0800,525.9650
42.0900,497.1750
42.1000,471.2900
42.1100,483.5150
42.1200,468.3550
42.1300,455.1925
42.1400,426.9175
42.1500,411.8675
42.1600,450.7600
42.1700,478.6450
42.1800,478.5450
42.1900,467.0975
42.2000,441.8200
42.2100,471.5500
42.2200,462.8000
42.2300,479.5675
42.2400,554.3425
42.2500,577.6175
42.2600,574.2875
42.2700,585.2225
42.2800,618.5100
42.2900,660.8625
42.3000,775.3375
42.3100,859.3325
42.3200,933.5125
42.3300,940.1000
42.3400,921.5075
42.3500,959.2025
42.3600,988.4725
42.3700,1024.0075
42.3800,1041.3825
42.3900,993.8600
42.4000,952.1475
42.4100,1006.8450
42.4200,1005.1275
42.4300,979.2400
42.4400,1020.2725
42.4500,1047.0350
42.4600,1054.6875
42.4700,1012.1775
42.4800,988.6550
42.4900,1000.6950
42.5000,1060.3975
42.5100,1038.9800
42.5200,1152.9575
42.5300,1228.6475
42.5400,1220.3625
42.5500,1259.8775
42.5600,1307.9050
42.5700,1289.7925
42.5800,1204.6875
42.5900,1131.5700
42.6000,1092.4675
42.6100,1101.8650
42.6200,1068.3325
42.6300,1047.6875
42.6400,1069.7800
42.6500,1059.2150
42.6600,941.5375
42.6700,888.7225
42.6800,886.6675
42.6900,861.3400
42.7000,822.3925
42.7100,814.5975
42.7200,704.1075
42.7300,628.0850
42.7400,618.9600
42.7500,567.2875
42.7600,573.1050
42.7700,545.4775
42.7800,531.2400
42.7900,505.9150
42.8000,479.6350
42.8100,502.9900
42.8200,500.7100
42.8300,479.6675
42.8400,475.6100
42.8500,469.8425
42.8600,434.8500
42.8700,424.5425
42.8800,440.2825
42.8900,460.2700
42.9000,475.7300
42.9100,507.1675
42.9200,515.4750
42.9300,506.5525
42.9400,546.2500
42.9500,544.0975
42.9600,526.5675
42.9700,514.3200
42.9800,534.7700
42.9900,535.4175
43.0000,512.0125
43.0100,530.2925
43.0200,520.8850
43.0300,505.5125
43.0400,496.6100
43.0500,461.9775
43.0600,533.9500
43.0700,545.3575
43.0800,521.0625
43.0900,509.9675
43.1000,499.9725
43.1100,494.4375
43.1200,462.1450
43.1300,475.6050
43.1400,474.4300
43.1500,464.4450
43.1600,474.4375
43.1700,477.7800
43.1800,476.6675
43.1900,518.7675
43.2000,535.5725
43.2100,511.2100
43.2200,495.5775
43.2300,513.2150
43.2400,538.7850
43.2500,531.2275
43.2600,571.8200
43.2700,669.3425
43.2800,717.6700
43.2900,727.7300
43.3000,784.9300
43.3100,837.4850
43.3200,751.2750
43.3300,737.2675
43.3400,767.6200
43.3500,825.8650
43.3600,811.7775
43.3700,700.3950
43.3800,683.9075
43.3900,743.6425
43.4000,771.0275
43.4100,764.6175
43.4200,746.9375
43.4300,748.7025
43.4400,720.7275
43.4500,716.3650
43.4600,701.6275
43.4700,674.8175
43.4800,699.1750
43.4900,733.9900
43.5000,786.6100
43.5100,842.4325
43.5200,847.0375
43.5300,844.3175
43.5400,868.2400
43.5500,886.4675
43.5600,909.3850
43.5700,1003.9375
43.5800,1028.4950
43.5900,1083.2850
43.6000,1098.5275
43.6100,1110.2700
43.6200,1131.9100
43.6300,1173.0875
43.6400,1244.7125
43.6500,1275.4725
43.6600,1268.1175
43.6700,1274.0125
43.6800,1307.7450
43.6900,1287.0800
43.7000,1285.8450
43.7100,1266.8550
43.7200,1273.4050
43.7300,1280.2875
43.7400,1336.1525
43.7500,1350.8950
43.7600,1255.1525
43.7700,1210.9050
43.7800,1183.6825
43.7900,1141.2700
43.8000,1061.1100
43.8100,985.2975
43.8200,942.2175
43.8300,894.1325
43.8400,875.4425
43.8500,847.1725
43.8600,846.8400
43.8700,877.7025
43.8800,822.7400
43.8900,787.5350
43.9000,842.4675
43.9100,854.4600
43.9200,788.8525
43.9300,781.7925
43.9400,815.4975
43.9500,851.7550
43.9600,860.4000
43.9700,869.1925
43.9800,922.5550
43.9900,964.5900
44.0000,979.5825
44.0100,1008.3075
44.0200,1089.8775
44.0300,1150.7800
44.0400,1094.8125
44.0500,1111.4275
44.0600,1130.0800
44.0700,1084.7825
44.0800,1034.3525
44.0900,991.8450
44.1000,1032.4725
44.1100,1058.4050
44.1200,1040.9500
44.1300,1010.6500
44.1400,928.6650
44.1500,907.2575
44.1600,905.5975
44.1700,898.7225
44.1800,902.0550
44.1900,919.7550
44.2000,866.4125
44.2100,863.5600
44.2200,898.9550
44.2300,898.4800
44.2400,866.7475
44.2500,839.7825
44.2600,825.1650
44.2700,789.3950
44.2800,757.7675
44.2900,752.0375
44.3000,714.6550
44.3100,685.9325
44.3200,677.2350
44.3300,675.3650
44.3400,690.8725
44.3500,693.9150
44.3600,724.4500
44.3700,756.7925
44.3800,751.1925
44.3900,751.4200
44.4000,764.7475
44.4100,782.1125
44.4200,848.5025
44.4300,872.5575
44.4400,841.1775
44.4500,784.4000
44.4600,734.5425
44.4700,750.1450
44.4800,765.9825
44.4900,747.2800
44.5000,728.6450
44.5100,731.3475
44.5200,728.6575
44.5300,701.3275
44.5400,664.6775
44.5500,659.9875
44.5600,672.6550
44.5700,588.9075
44.5800,571.8525
44.5900,580.0850
44.6000,556.7175
44.6100,567.8975
44.6200,542.2475
44.6300,500.7825
44.6400,476.1125
44.6500,480.5450
44.6600,484.0575
44.6700,464.1625
44.6800,451.3550
44.6900,455.9300
44.7000,458.0250
44.7100,460.6150
44.7200,465.3050
44.7300,448.9300
44.7400,428.7900
44.7500,450.8800
44.7600,491.6275
44.7700,512.5600
44.7800,524.5200
44.7900,533.9225
44.8000,511.1825
44.8100,557.9750
44.8200,593.5475
44.8300,584.7100
44.8400,585.2875
44.8500,643.3025
44.8600,646.2550
44.8700,598.5500
44.8800,606.7150
44.8900,619.4400
44.9000,585.5375
44.9100,590.5525
44.9200,610.0000
44.9300,590.5875
44.9400,568.9075
44.9500,574.9625
44.9600,558.1525
44.9700,545.8075
44.9800,542.2650
44.9900,521.2050
45.0000,511.9300
45.0100,480.5275
45.0200,477.8775
45.0300,489.4800
45.0400,480.8900
45.0500,440.1125
45.0600,447.9375
45.0700,438.7550
45.0800,397.9750
45.0900,386.6675
45.1000,400.0850
45.1100,396.5925
45.1200,405.8050
45.1300,420.0000
45.1400,454.4000
45.1500,478.0900
45.1600,455.6750
45.1700,432.3725
45.1800,426.6675
45.1900,419.0500
45.2000,445.6775
45.2100,466.1975
45.2200,440.5350
45.2300,449.9100
45.2400,462.4125
45.2500,456.6675
45.2600,479.3975
45.2700,509.9150
45.2800,491.6300
45.2900,479.4500
45.3000,496.1100
45.3100,505.2200
45.3200,561.3525
45.3300,584.4900
45.3400,598.2450
45.3500,627.5275
45.3600,627.6925
45.3700,604.5450
45.3800,580.6125
45.3900,614.6050
45.4000,667.2875
45.4100,660.8550
45.4200,645.2050
45.4300,646.6675
45.4400,613.0225
45.4500,635.2275
45.4600,643.4700
45.4700,623.7300
45.4800,606.1675
45.4900,584.4125
45.5000,593.0275
45.5100,638.6650
45.5200,627.6450
45.5300,594.8100
45.5400,632.2975
45.5500,661.4800
45.5600,656.2950
45.5700,651.4825
45.5800,692.5500
45.5900,782.1275
45.6000,859.9175
45.6100,919.8950
45.6200,1005.6950
45.6300,1152.8700
45.6400,1362.2700
45.6500,1521.8850
45.6600,1583.2200
45.6700,1712.4550
45.6800,1870.9475
45.6900,2018.7650
45.7000,2113.1725
45.7100,2057.0300
45.7200,2027.4675
45.7300,2068.3000
45.7400,2130.8750
45.7500,2168.1725
45.7600,2137.4525
45.7700,2100.5600
45.7800,2059.0050
45.7900,2055.1975
45.8000,2047.8450
45.8100,1952.0750
45.8200,1888.1825
45.8300,1792.2000
45.8400,1662.5025
45.8500,1632.6975
45.8600,1605.2650
45.8700,1473.7050
45.8800,1339.3175
45.8900,1293.0500
45.9000,1239.3900
45.9100,1140.6750
45.9200,1073.4800
45.9300,944.8425
45.9400,848.1975
45.9500,814.2475
45.9600,784.8675
45.9700,790.5275
45.9800,742.7525
45.9900,655.3625
46.0000,634.3575
46.0100,628.7350
46.0200,597.2050
46.0300,565.4275
46.0400,541.0525
46.0500,535.1225
46.0600,522.3725
46.0700,513.5700
46.0800,511.3150
46.0900,510.2325
46.1000,477.6975
46.1100,439.5450
46.1200,444.0075
46.1300,469.3350
46.1400,454.9075
46.1500,451.3050
46.1600,450.4850
46.1700,442.1975
46.1800,450.0000
46.1900,441.1475
46.2000,424.4875
46.2100,420.2025
46.2200,446.3000
46.2300,484.3200
46.2400,494.7075
46.2500,484.7125
46.2600,483.5225
46.2700,460.2625
46.2800,434.9075
46.2900,459.7025
46.3000,472.7925
46.3100,465.0875
46.3200,470.1750
46.3300,506.6375
46.3400,527.9075
46.3500,527.0025
46.3600,547.3275
46.3700,580.9750
46.3800,633.1875
46.3900,677.2975
46.4000,716.1650
46.4100,771.3750
46.4200,824.3850
46.4300,895.4050
46.4400,992.1825
46.4500,1000.0225
46.4600,968.5450
46.4700,968.1250
46.4800,963.3325
46.4900,984.1325
46.5000,998.1375
46.5100,996.7950
46.5200,960.2150
46.5300,949.2625
46.5400,914.6050
46.5500,851.3700
46.5600,851.9575
46.5700,877.2375
46.5800,874.3850
46.5900,856.6675
46.6000,837.7450
46.6100,809.6850
46.6200,803.4350
46.6300,750.0200
46.6400,712.1050
46.6500,743.8100
46.6600,701.7575
46.6700,615.8525
46.6800,622.5900
46.6900,622.4775
46.7000,569.5000
46.7100,548.2925
46.7200,538.1375
46.7300,506.1325
46.7400,474.8150
46.7500,480.2875
46.7600,489.9300
46.7700,488.3675
46.7800,481.5050
46.7900,492.0100
46.8000,499.8200
46.8100,484.9125
46.8200,476.6125
46.8300,453.0150
46.8400,414.7200
46.8500,374.6850
46.8600,371.9200
46.8700,401.8200
46.8800,448.7700
46.8900,473.2150
46.9000,446.4825
46.9100,443.4725
46.9200,453.3000
46.9300,450.0000
46.9400,433.1950
46.9500,433.4625
46.9600,450.0000
46.9700,478.5125
46.9800,503.3150
46.9900,476.5500
47.0000,449.9850
47.0100,496.8475
47.0200,544.9950
47.0300,521.6175
47.0400,510.0150
47.0500,511.6600
47.0600,479.9950
47.0700,440.0075
47.0800,436.6525
47.0900,450.0000
47.1000,469.9525
47.1100,476.7075
47.1200,460.0125
47.1300,459.9850
47.1400,491.5225
47.1500,491.8275
47.1600,433.5250
47.1700,411.6075
47.1800,423.3075
47.1900,429.9725
47.2000,406.9075
47.2100,384.9525
47.2200,390.0000
47.2300,406.4850
47.2400,413.4500
47.2500,395.1025
47.2600,394.8925
47.2700,396.7575
47.2800,390.0000
47.2900,426.1225
47.3000,432.1575
47.3100,365.5650
47.3200,343.1100
47.3300,374.6800
47.3400,393.3325
47.3500,399.8750
47.3600,403.3975
47.3700,416.3325
47.3800,439.8625
47.3900,446.6675
47.4000,443.4075
47.4100,415.5625
47.4200,394.8850
47.4300,408.1350
47.4400,400.4075
47.4500,375.2075
47.4600,389.4000
47.4700,427.9400
47.4800,467.6600
47.4900,516.0225
47.5000,530.2825
47.5100,505.4325
47.5200,509.4125
47.5300,552.6325
47.5400,600.9000
47.5500,644.4275
47.5600,697.2175
47.5700,720.4325
47.5800,734.0600
47.5900,790.7100
47.6000,863.4525
47.6100,937.3425
47.6200,947.3775
47.6300,934.6975
47.6400,962.5975
47.6500,1057.1300
47.6600,1138.2700
47.6700,1103.1475
47.6800,1060.1300
47.6900,1058.2675
47.7000,1008.8250
47.7100,970.9125
47.7200,977.2225
47.7300,956.9475
47.7400,938.8325
47.7500,880.4350
47.7600,834.7800
47.7700,832.0400
47.7800,845.6100
47.7900,831.8350
47.8000,764.5725
47.8100,695.3725
47.8200,638.8900
47.8300,650.4600
47.8400,613.2550
47.8500,544.9175
47.8600,567.2500
47.8700,582.0875
47.8800,530.6375
47.8900,488.0750
47.9000,487.0150
47.9100,491.0500
47.9200,500.1775
47.9300,493.5125
47.9400,478.9725
47.9500,452.4950
47.9600,427.2250
47.9700,408.8025
47.9800,426.7175
47.9900,455.0950
48.0000,450.1950
48.0100,410.5850
48.0200,373.1350
48.0300,406.4375
48.0400,438.4350
48.0500,449.1875
48.0600,452.3850
48.0700,438.4375
48.0800,435.1050
48.0900,428.6500
48.1000,431.1350
48.1100,441.5600
48.1200,458.9175
48.1300,486.0100
48.1400,491.9975
48.1500,500.6675
48.1600,515.1125
48.1700,507.1175
48.1800,490.6825
48.1900,473.7925
48.2000,485.2775
48.2100,533.0150
48.2200,526.1575
48.2300,472.4975
48.2400,489.3975
48.2500,509.4175
48.2600,510.3325
48.2700,551.6225
48.2800,570.4925
48.2900,560.2475
48.3000,565.9175
48.3100,578.2075
48.3200,598.4775
48.3300,627.6950
48.3400,675.1175
48.3500,692.3325
48.3600,667.6800
48.3700,702.7675
48.3800,753.2800
48.3900,767.4650
48.4000,745.9375
48.4100,708.8250
48.4200,655.5050
48.4300,651.1450
48.4400,654.0050
48.4500,617.2200
48.4600,582.5075
48.4700,548.4725
48.4800,552.7700
48.4900,578.2950
48.5000,609.1425
48.5100,623.0450
48.5200,608.4025
48.5300,545.5950
48.5400,495.1475
48.5500,500.9300
48.5600,510.0000
48.5700,506.9650
48.5800,495.7500
48.5900,491.2150
48.6000,472.4250
48.6100,420.6200
48.6200,426.6275
48.6300,460.6175
48.6400,454.8450
48.6500,447.6025
48.6600,406.4700
48.6700,368.4900
48.6800,378.7325
48.6900,402.3775
48.7000,402.7875
48.7100,383.9775
48.7200,390.2100
48.7300,420.2025
48.7400,429.1525
48.7500,415.4925
48.7600,405.4950
48.7700,412.0050
48.7800,416.1675
48.7900,394.3400
48.8000,381.8350
48.8100,394.9725
48.8200,423.8075
48.8300,445.6400
48.8400,458.1625
48.8500,465.9750
48.8600,480.7975
48.8700,487.0150
48.8800,501.2300
48.8900,550.1650
48.9000,596.7400
48.9100,586.5325
48.9200,541.4275
48.9300,559.3875
48.9400,604.4600
48.9500,587.7150
48.9600,562.9700
48.9700,569.6350
48.9800,576.3000
48.9900,600.7550
49.0000,623.7025
49.0100,608.1525
49.0200,627.3750
49.0300,675.9175
49.0400,695.1600
49.0500,721.8200
49.0600,749.9575
49.0700,751.9075
49.0800,705.3050
49.0900,678.8475
49.1000,679.6850
49.1100,669.6125
49.1200,663.0300
49.1300,654.4150
49.1400,658.5300
49.1500,661.0750
49.1600,671.0725
49.1700,700.1575
49.1800,735.8700
49.1900,718.4025
49.2000,682.2700
49.2100,657.6200
49.2200,642.1200
49.2300,632.8450
49.2400,596.4275
49.2500,584.7950
49.2600,585.2050
49.2700,565.8075
49.2800,549.1725
49.2900,571.2550
49.3000,604.5800
49.3100,611.6750
49.3200,606.8625
49.3300,609.8100
49.3400,582.1150
49.3500,577.8775
49.3600,585.0375
49.3700,572.9050
49.3800,575.2150
49.3900,557.3700
49.4000,516.3600
49.4100,503.0475
49.4200,522.8975
49.4300,526.6675
49.4400,532.4575
49.4500,542.8925
49.4600,527.8675
49.4700,501.8875
49.4800,507.2225
49.4900,509.4475
49.5000,505.7725
49.5100,523.4300
49.5200,536.6675
49.5300,528.0200
49.5400,515.2275
49.5500,514.7725
49.5600,493.6475
49.5700,453.2675
49.5800,462.9975
49.5900,499.0800
49.6000,503.7950
49.6100,507.1750
49.6200,538.1825
49.6300,563.8000
49.6400,537.0725
49.6500,539.6100
49.6600,593.3550
49.6700,570.8950
49.6800,524.7625
49.6900,495.2200
49.7000,441.9025
49.7100,416.6700
49.7200,430.4525
49.7300,483.7850
49.7400,495.2600
49.7500,485.7000
49.7600,493.3325
49.7700,483.3675
49.7800,464.3075
49.7900,463.7800
49.8000,473.3325
49.8100,469.0700
49.8200,463.3325
49.8300,446.2975
49.8400,427.5900
49.8500,427.6600
49.8600,415.7475
49.8700,401.4975
49.8800,378.6700
49.8900,391.6450
49.9000,421.5100
49.9100,404.3425
49.9200,398.0800
49.9300,394.3475
49.9400,396.5525
49.9500,424.1150
49.9600,432.0475
49.9700,415.2575
49.9800,413.3325
49.9900,413.3325
50.0000,413.3325
