#Intensity_unit=cps
#Attenuator_coefficient=1.0000
10.0000,922.4425
10.0100,877.8050
10.0200,891.5375
10.0300,905.4650
10.0400,885.4450
10.0500,907.5775
10.0600,828.2050
10.0700,850.2825
10.0800,959.2825
10.0900,918.5575
10.1000,904.2600
10.1100,930.5450
10.1200,924.2650
10.1300,893.1200
10.1400,893.0200
10.1500,914.4650
10.1600,889.5075
10.1700,868.5675
10.1800,939.0350
10.1900,928.5825
10.2000,905.5750
10.2100,951.5225
10.2200,977.7400
10.2300,919.8125
10.2400,877.2350
10.2500,918.4375
10.2600,950.3850
10.2700,938.3100
10.2800,948.6800
10.2900,913.9750
10.3000,870.9875
10.3100,908.6625
10.3200,880.3500
10.3300,858.6825
10.3400,823.7100
10.3500,843.9600
10.3600,918.5150
10.3700,944.6225
10.3800,952.6500
10.3900,899.5125
10.4000,851.4900
10.4100,915.3800
10.4200,914.3750
10.4300,946.1700
10.4400,899.2725
10.4500,875.4375
10.4600,891.2225
10.4700,890.3525
10.4800,827.4425
10.4900,888.4875
10.5000,929.4075
10.5100,850.0250
10.5200,950.0375
10.5300,963.3325
10.5400,886.0725
10.5500,867.7550
10.5600,863.6975
10.5700,898.9475
10.5800,909.2675
10.5900,904.0700
10.6000,861.8375
10.6100,844.8150
10.6200,813.7175
10.6300,795.2000
10.6400,819.9650
10.6500,814.4600
10.6600,839.9425
10.6700,858.1100
10.6800,815.6900
10.6900,821.8100
10.7000,935.4850
10.7100,899.8475
10.7200,881.5375
10.7300,823.9975
10.7400,860.8600
10.7500,831.3275
10.7600,835.4975
10.7700,836.6675
10.7800,839.6075
10.7900,881.1575
10.8000,860.2200
10.8100,841.9800
10.8200,834.1275
10.8300,850.9425
10.8400,847.4675
10.8500,870.1225
10.8600,896.7800
10.8700,900.0000
10.8800,885.3600
10.8900,880.4075
10.9000,906.3300
10.9100,901.2275
10.9200,958.4600
10.9300,890.7025
10.9400,880.0000
10.9500,874.1625
10.9600,902.5100
10.9700,848.3375
10.9800,872.0675
10.9900,914.5475
11.0000,908.3500
11.0100,880.4650
11.0200,891.2150
11.0300,867.1575
11.0400,779.0250
11.0500,778.2900
11.0600,867.1375
11.0700,839.3550
11.0800,876.8625
11.0900,880.4325
11.1000,839.4100
11.1100,833.3325
11.1200,888.3675
11.1300,879.2950
11.1400,894.0300
11.1500,835.9225
11.1600,852.6875
11.1700,850.8875
11.1800,887.5500
11.1900,858.6875
11.2000,827.3600
11.2100,855.0625
11.2200,851.3500
11.2300,841.3550
11.2400,845.7600
11.2500,866.8200
11.2600,867.1225
11.2700,786.1300
11.2800,848.0825
11.2900,894.4825
11.3000,868.4050
11.3100,897.7825
11.3200,857.4225
11.3300,901.6250
11.3400,855.5325
11.3500,832.3400
11.3600,864.3675
11.3700,892.9000
11.3800,813.6900
11.3900,882.9350
11.4000,930.9675
11.4100,859.5250
11.4200,849.5225
11.4300,878.5425
11.4400,900.4500
11.4500,943.2550
11.4600,938.6000
11.4700,802.7750
11.4800,862.5750
11.4900,865.2825
11.5000,851.9550
11.5100,875.5875
11.5200,882.8425
11.5300,798.1225
11.5400,871.3425
11.5500,798.7025
11.5600,820.2025
11.5700,838.0050
11.5800,882.5000
11.5900,799.3775
11.6000,862.5875
11.6100,862.5200
11.6200,845.8625
11.6300,894.2075
11.6400,835.5350
11.6500,840.2750
11.6600,840.5125
11.6700,797.6900
11.6800,837.9275
11.6900,857.9375
11.7000,803.6725
11.7100,810.2225
11.7200,802.0800
11.7300,791.5650
11.7400,812.4850
11.7500,825.0950
11.7600,812.6275
11.7700,812.8075
11.7800,894.6750
11.7900,856.7350
11.8000,829.8550
11.8100,843.4700
11.8200,807.4800
11.8300,780.4175
11.8400,810.2225
11.8500,847.4100
11.8600,839.3675
11.8700,811.5400
11.8800,801.0850
11.8900,758.1650
11.9000,794.6000
11.9100,825.6225
11.9200,832.7850
11.9300,816.6350
11.9400,852.2775
11.9500,848.8800
11.9600,791.0925
11.9700,791.1100
11.9800,773.9025
11.9900,781.0975
12.0000,813.8350
12.0100,770.1150
12.0200,796.0100
12.0300,775.6500
12.0400,805.9700
12.0500,846.5200
12.0600,789.7600
12.0700,773.9050
12.0800,836.8375
12.0900,833.4425
12.1000,827.2425
12.1100,829.4225
12.1200,854.7950
12.1300,813.1875
12.1400,828.1025
12.1500,775.5700
12.1600,760.5850
12.1700,724.2800
12.1800,766.0975
12.1900,787.6450
12.2000,787.2575
12.2100,734.5750
12.2200,772.6550
12.2300,744.9925
12.2400,744.8775
12.2500,743.9300
12.2600,795.2800
12.2700,836.7250
12.2800,824.2150
12.2900,806.3525
12.3000,819.7025
12.3100,826.0600
12.3200,840.2925
12.3300,832.4400
12.3400,832.7225
12.3500,814.2900
12.3600,826.3125
12.3700,772.9350
12.3800,760.0000
12.3900,762.7150
12.4000,774.1850
12.4100,844.4475
12.4200,889.8075
12.4300,896.6675
12.4400,902.0800
12.4500,919.5650
12.4600,971.9975
12.4700,1002.2475
12.4800,1030.9725
12.4900,1036.6675
12.5000,1082.5225
12.5100,1144.5550
12.5200,1172.8325
12.5300,1292.4575
12.5400,1252.7200
12.5500,1161.3550
12.5600,1189.0325
12.5700,1275.2250
12.5800,1274.5375
12.5900,1178.7625
12.6000,1153.9850
12.6100,1056.8400
12.6200,987.7950
12.6300,1008.7925
12.6400,963.1525
12.6500,872.4500
12.6600,922.8200
12.6700,1012.1150
12.6800,987.2900
12.6900,912.6375
12.7000,907.3325
12.7100,931.3175
12.7200,973.9500
12.7300,1007.2875
12.7400,981.4150
12.7500,994.6000
12.7600,1090.3300
12.7700,1121.3000
12.7800,1157.8300
12.7900,1201.1425
12.8000,1146.3900
12.8100,1148.5425
12.8200,1124.2125
12.8300,1087.5650
12.8400,1058.8475
12.8500,1042.7625
12.8600,1029.4375
12.8700,960.6850
12.8800,959.1600
12.8900,939.6075
12.9000,878.0075
12.9100,881.7625
12.9200,870.8800
12.9300,821.9625
12.9400,749.5550
12.9500,746.4650
12.9600,763.1250
12.9700,748.3050
12.9800,756.4425
12.9900,770.4800
13.0000,747.1500
13.0100,737.3825
13.0200,817.7375
13.0300,803.4100
13.0400,785.4975
13.0500,765.0600
13.0600,775.6525
13.0700,800.8575
13.0800,733.7125
13.0900,744.5800
13.1000,771.5500
13.1100,784.4675
13.1200,807.4575
13.1300,779.5675
13.1400,749.2350
13.1500,748.5225
13.1600,739.6300
13.1700,759.9825
13.1800,769.2550
13.1900,751.8875
13.2000,785.4550
13.2100,804.4200
13.2200,749.8500
13.2300,692.0375
13.2400,749.6400
13.2500,770.0000
13.2600,777.7275
13.2700,774.8525
13.2800,793.9150
13.2900,800.0000
13.3000,753.7525
13.3100,701.4850
13.3200,718.2275
13.3300,762.5675
13.3400,760.5200
13.3500,718.2500
13.3600,675.9550
13.3700,687.1275
13.3800,754.6775
13.3900,740.1275
13.4000,709.5775
13.4100,708.4350
13.4200,727.8450
13.4300,781.7400
13.4400,763.5675
13.4500,738.0675
13.4600,710.4500
13.4700,738.9075
13.4800,765.2350
13.4900,744.6225
13.5000,749.3475
13.5100,748.2650
13.5200,749.2000
13.5300,790.4950
13.5400,800.8050
13.5500,789.8900
13.5600,771.5125
13.5700,746.4725
13.5800,742.5225
13.5900,715.6050
13.6000,739.4150
13.6100,755.0350
13.6200,756.6675
13.6300,736.5550
13.6400,664.6825
13.6500,686.0125
13.6600,700.0000
13.6700,730.0850
13.6800,727.4725
13.6900,723.3325
13.7000,730.8400
13.7100,725.8325
13.7200,700.8450
13.7300,725.7925
13.7400,766.6075
13.7500,754.2250
13.7600,696.8325
13.7700,675.0200
13.7800,673.3325
13.7900,730.5250
13.8000,702.7875
13.8100,718.9475
13.8200,821.8125
13.8300,801.2600
13.8400,713.9500
13.8500,729.6200
13.8600,706.2150
13.8700,705.6975
13.8800,712.4700
13.8900,735.5575
13.9000,738.3975
13.9100,731.7350
13.9200,725.0725
13.9300,747.9575
13.9400,761.5875
13.9500,751.0400
13.9600,741.7525
13.9700,698.2600
13.9800,695.6025
13.9900,697.5475
14.0000,699.1175
14.0100,726.9325
14.0200,702.4150
14.0300,680.2200
14.0400,657.1225
14.0500,662.2075
14.0600,722.7775
14.0700,701.8900
14.0800,715.9000
14.0900,704.7575
14.1000,691.8025
14.1100,743.4775
14.1200,692.8925
14.1300,644.8225
14.1400,702.1550
14.1500,746.0575
14.1600,687.9400
14.1700,697.2150
14.1800,736.6025
14.1900,768.4175
14.2000,764.5925
14.2100,752.7600
14.2200,745.1775
14.2300,738.5150
14.2400,724.6275
14.2500,734.4350
14.2600,756.8300
14.2700,777.7475
14.2800,768.9300
14.2900,746.5425
14.3000,737.6025
14.3100,772.5950
14.3200,777.0925
14.3300,696.8000
14.3400,712.0750
14.3500,732.3875
14.3600,730.9475
14.3700,670.3875
14.3800,639.5175
14.3900,705.7125
14.4000,721.4375
14.4100,690.5175
14.4200,696.6275
14.4300,729.4450
14.4400,697.3050
14.4500,668.1500
14.4600,660.9650
14.4700,738.0925
14.4800,774.7300
14.4900,719.9575
14.5000,701.3875
14.5100,693.8975
14.5200,708.8600
14.5300,690.7550
14.5400,684.7075
14.5500,717.2425
14.5600,692.3975
14.5700,674.3175
14.5800,710.8775
14.5900,705.5650
14.6000,682.6100
14.6100,676.6675
14.6200,697.7200
14.6300,673.9450
14.6400,655.3300
14.6500,681.3375
14.6600,686.3375
14.6700,664.6925
14.6800,670.6350
14.6900,658.0550
14.7000,673.2450
14.7100,713.5275
14.7200,708.1000
14.7300,711.5950
14.7400,705.0800
14.7500,665.2700
14.7600,670.8200
14.7700,682.3125
14.7800,704.1200
14.7900,766.4150
14.8000,783.0825
14.8100,766.1750
14.8200,748.4875
14.8300,738.7325
14.8400,764.2500
14.8500,783.5575
14.8600,818.7950
14.8700,833.3325
14.8800,828.7500
14.8900,899.9250
14.9000,963.0700
14.9100,951.5250
14.9200,994.8100
14.9300,1088.4575
14.9400,1170.1600
14.9500,1181.9425
14.9600,1206.2575
14.9700,1208.6275
14.9800,1214.6950
14.9900,1256.3300
15.0000,1212.0750
15.0100,1176.5325
15.0200,1164.2725
15.0300,1141.8950
15.0400,1131.0725
15.0500,1152.5950
15.0600,1201.7100
15.0700,1222.2550
15.0800,1254.8850
15.0900,1303.7775
15.1000,1349.2500
15.1100,1374.5750
15.1200,1409.2000
15.1300,1403.1350
15.1400,1344.0000
15.1500,1248.3025
15.1600,1188.7075
15.1700,1134.1675
15.1800,1057.4625
15.1900,942.9150
15.2000,906.6925
15.2100,883.2500
15.2200,856.6375
15.2300,827.7475
15.2400,778.8675
15.2500,744.4500
15.2600,758.8625
15.2700,765.5650
15.2800,694.6425
15.2900,635.6475
15.3000,652.0900
15.3100,660.0375
15.3200,676.5400
15.3300,662.3975
15.3400,663.2250
15.3500,687.6200
15.3600,705.4675
15.3700,703.4050
15.3800,638.4925
15.3900,611.0550
15.4000,648.4200
15.4100,666.6675
15.4200,668.8550
15.4300,680.9350
15.4400,686.6675
15.4500,675.7500
15.4600,656.9125
15.4700,632.5650
15.4800,603.7375
15.4900,619.4400
15.5000,648.5475
15.5100,643.6375
15.5200,636.6675
15.5300,654.0075
15.5400,652.5050
15.5500,638.0100
15.5600,663.6000
15.5700,656.2400
15.5800,664.9150
15.5900,687.4475
15.6000,686.8700
15.6100,709.1600
15.6200,678.1775
15.6300,666.2225
15.6400,658.3100
15.6500,654.2900
15.6600,663.0950
15.6700,668.8075
15.6800,655.0300
15.6900,616.7550
15.7000,625.6150
15.7100,637.8675
15.7200,615.3600
15.7300,588.4325
15.7400,611.9025
15.7500,640.6250
15.7600,653.0350
15.7700,663.0300
15.7800,643.3575
15.7900,606.7125
15.8000,633.5175
15.8100,650.3275
15.8200,615.0000
15.8300,594.5575
15.8400,624.9400
15.8500,660.1750
15.8600,663.6900
15.8700,613.7725
15.8800,584.5675
15.8900,633.6675
15.9000,688.4775
15.9100,688.6800
15.9200,665.3600
15.9300,658.7550
15.9400,645.3875
15.9500,645.0075
15.9600,641.6675
15.9700,628.3400
15.9800,621.2550
15.9900,592.9950
16.0000,601.5725
16.0100,631.1800
16.0200,658.6425
16.0300,665.8600
16.0400,611.6475
16.0500,594.4575
16.0600,621.9050
16.0700,639.5175
16.0800,624.7975
16.0900,613.3325
16.1000,637.9975
16.1100,649.2275
16.1200,634.3575
16.1300,630.7650
16.1400,682.4725
16.1500,668.3350
16.1600,658.3900
16.1700,682.2475
16.1800,665.5275
16.1900,647.9625
16.2000,640.5600
16.2100,622.4325
16.2200,660.0550
16.2300,655.5025
16.2400,576.5700
16.2500,556.2025
16.2600,580.8300
16.2700,618.2975
16.2800,636.6675
16.2900,652.8050
16.3000,657.2875
16.3100,637.2275
16.3200,628.6775
16.3300,615.9375
16.3400,618.7100
16.3500,618.6475
16.3600,635.3675
16.3700,652.0000
16.3800,627.3475
16.3900,621.9825
16.4000,641.9700
16.4100,626.0850
16.4200,596.0650
16.4300,608.5425
16.4400,585.5850
16.4500,567.9375
16.4600,575.3150
16.4700,604.3950
16.4800,611.4625
16.4900,615.1925
16.5000,611.4875
16.5100,625.0300
16.5200,630.1475
16.5300,601.6825
16.5400,594.5325
16.5500,600.0000
16.5600,590.1900
16.5700,585.2925
16.5800,612.1225
16.5900,610.4400
16.6000,598.6200
16.6100,601.9525
16.6200,595.5350
16.6300,640.6425
16.6400,666.9375
16.6500,634.7325
16.6600,632.2000
16.6700,656.9100
16.6800,627.9175
16.6900,625.1600
16.7000,653.0000
16.7100,621.3750
16.7200,583.6875
16.7300,605.5725
16.7400,632.4425
16.7500,632.8200
16.7600,637.6825
16.7700,643.3325
16.7800,639.5000
16.7900,638.5825
16.8000,630.4375
16.8100,617.6025
16.8200,611.4250
16.8300,657.6600
16.8400,647.6300
16.8500,649.4750
16.8600,651.9650
16.8700,629.5375
16.8800,626.6675
16.8900,609.6225
16.9000,594.7750
16.9100,581.9950
16.9200,599.7600
16.9300,604.9150
16.9400,602.7500
16.9500,587.4250
16.9600,588.7925
16.9700,640.8750
16.9800,623.1250
16.9900,599.7775
17.0000,623.0950
17.0100,612.7775
17.0200,602.2675
17.0300,588.0225
17.0400,601.2700
17.0500,669.8425
17.0600,678.7925
17.0700,615.8325
17.0800,601.8725
17.0900,620.3700
17.1000,586.3375
17.1100,532.6475
17.1200,537.3250
17.1300,558.5100
17.1400,594.9850
17.1500,630.6900
17.1600,636.6675
17.1700,607.3075
17.1800,566.8375
17.1900,566.1500
17.2000,613.2400
17.2100,630.5475
17.2200,601.7550
17.2300,586.6675
17.2400,577.5650
17.2500,573.6350
17.2600,593.0100
17.2700,610.2950
17.2800,611.5225
17.2900,629.9050
17.3000,673.7775
17.3100,644.3125
17.3200,618.0325
17.3300,606.3175
17.3400,568.9425
17.3500,565.6500
17.3600,598.4575
17.3700,603.8675
17.3800,591.7900
17.3900,587.9675
17.4000,565.4725
17.4100,539.2975
17.4200,563.8550
17.4300,600.4525
17.4400,576.4500
17.4500,546.4500
17.4600,575.2525
17.4700,605.1050
17.4800,608.4350
17.4900,611.7675
17.5000,615.0975
17.5100,623.7175
17.5200,630.0000
17.5300,612.4175
17.5400,593.1550
17.5500,593.5075
17.5600,598.4175
17.5700,591.2525
17.5800,588.5750
17.5900,591.5875
17.6000,598.7150
17.6100,590.9975
17.6200,574.9275
17.6300,562.9125
17.6400,563.7400
17.6500,559.4750
17.6600,576.0800
17.6700,601.6050
17.6800,582.7425
17.6900,542.5350
17.7000,513.1150
17.7100,525.5800
17.7200,560.5050
17.7300,571.5225
17.7400,552.9650
17.7500,531.4475
17.7600,560.9200
17.7700,612.0225
17.7800,590.8800
17.7900,570.2825
17.8000,600.3300
17.8100,609.8775
17.8200,591.4650
17.8300,586.7725
17.8400,593.3325
17.8500,589.9550
17.8600,588.3525
17.8700,563.0475
17.8800,555.1725
17.8900,575.0125
17.9000,581.7000
17.9100,600.0725
17.9200,620.0275
17.9300,628.3375
17.9400,611.6400
17.9500,590.0000
17.9600,594.9900
17.9700,600.0075
17.9800,590.0250
17.9900,578.3600
18.0000,568.3650
18.0100,561.6800
18.0200,558.3475
18.0300,563.2650
18.0400,550.2325
18.0500,567.8350
18.0600,616.5225
18.0700,620.1050
18.0800,590.3950
18.0900,566.6675
18.1000,569.9350
18.1100,574.9650
18.1200,581.5550
18.1300,576.9025
18.1400,584.5425
18.1500,591.9725
18.1600,610.7925
18.1700,612.5825
18.1800,592.9300
18.1900,630.8775
18.2000,648.6075
18.2100,604.5875
18.2200,571.4900
18.2300,591.1125
18.2400,571.4000
18.2500,558.9450
18.2600,567.4850
18.2700,545.0700
18.2800,586.3750
18.2900,633.3325
18.3000,622.2050
18.3100,624.2875
18.3200,625.7325
18.3300,603.6675
18.3400,606.1500
18.3500,637.1875
18.3600,712.0175
18.3700,792.0375
18.3800,818.2375
18.3900,892.2025
18.4000,1040.7300
18.4100,1209.0100
18.4200,1449.3050
18.4300,1642.3500
18.4400,1759.9125
18.4500,1932.0375
18.4600,2117.2475
18.4700,2266.0925
18.4800,2377.8000
18.4900,2512.4800
18.5000,2528.9300
18.5100,2388.0425
18.5200,2266.0825
18.5300,2118.7300
18.5400,1881.7600
18.5500,1626.4400
18.5600,1455.4050
18.5700,1312.9875
18.5800,1153.6500
18.5900,1008.4425
18.6000,882.4325
18.6100,793.2775
18.6200,759.6700
18.6300,722.1125
18.6400,695.1525
18.6500,694.8450
18.6600,678.5575
18.6700,653.6525
18.6800,634.9550
18.6900,619.6700
18.7000,615.8325
18.7100,608.1650
18.7200,581.5875
18.7300,543.6800
18.7400,551.9275
18.7500,587.5075
18.7600,616.3050
18.7700,597.7375
18.7800,589.2650
18.7900,607.4150
18.8000,597.0450
18.8100,584.4825
18.8200,596.8975
18.8300,607.5500
18.8400,573.0550
18.8500,560.0000
18.8600,545.3625
18.8700,545.6650
18.8800,577.2950
18.8900,583.7525
18.9000,575.6375
18.9100,562.7375
18.9200,570.7325
18.9300,584.6475
18.9400,566.1050
18.9500,548.0075
18.9600,566.9250
18.9700,585.0875
18.9800,542.3025
18.9900,530.5025
19.0000,571.5000
19.0100,590.4625
19.0200,552.8650
19.0300,547.6075
19.0400,539.1075
19.0500,502.9550
19.0600,495.5975
19.0700,527.9925
19.0800,532.0250
19.0900,530.7775
19.1000,557.0450
19.1100,568.0725
19.1200,578.4250
19.1300,561.9600
19.1400,540.1300
19.1500,547.9625
19.1600,522.4825
19.1700,527.8100
19.1800,557.2375
19.1900,583.6075
19.2000,591.9475
19.2100,572.0125
19.2200,546.6675
19.2300,552.1825
19.2400,554.4925
19.2500,541.1700
19.2600,548.4250
19.2700,582.3275
19.2800,586.3250
19.2900,551.6500
19.3000,544.9900
19.3100,558.5025
19.3200,538.5175
19.3300,528.0225
19.3400,542.1825
19.3500,551.8925
19.3600,581.8175
19.3700,620.4400
19.3800,570.5350
19.3900,527.8800
19.4000,529.4725
19.4100,567.9850
19.4200,542.6450
19.4300,512.6675
19.4400,523.9625
19.4500,557.9675
19.4600,559.3950
19.4700,549.9500
19.4800,570.5675
19.4900,578.7550
19.5000,557.4525
19.5100,538.0775
19.5200,545.7400
19.5300,555.5950
19.5400,505.8850
19.5500,482.9050
19.5600,523.7525
19.5700,511.3975
19.5800,490.0275
19.5900,531.8475
19.6000,542.5850
19.6100,547.9575
19.6200,561.5950
19.6300,591.5750
19.6400,601.0125
19.6500,570.0075
19.6600,540.7750
19.6700,530.2825
19.6800,526.3725
19.6900,521.4025
19.7000,510.6325
19.7100,537.1350
19.7200,554.7175
19.7300,584.6975
19.7400,586.9500
19.7500,560.0000
19.7600,529.8650
19.7700,487.5200
19.7800,530.0225
19.7900,562.5200
19.8000,542.0575
19.8100,576.5700
19.8200,601.3100
19.8300,563.1225
19.8400,529.5175
19.8500,541.2350
19.8600,533.4775
19.8700,537.5725
19.8800,583.1525
19.8900,604.9000
19.9000,605.9975
19.9100,610.4175
19.9200,658.2700
19.9300,709.4500
19.9400,772.4525
19.9500,854.8175
19.9600,899.1225
19.9700,860.7025
19.9800,868.8000
19.9900,940.9300
20.0000,910.2875
20.0100,877.6950
20.0200,893.7775
20.0300,875.4750
20.0400,842.4050
20.0500,766.4850
20.0600,721.7050
20.0700,718.4925
20.0800,719.9375
20.0900,673.9125
20.1000,660.1925
20.1100,650.2450
20.1200,607.1225
20.1300,576.3250
20.1400,554.0075
20.1500,533.1750
20.1600,534.7950
20.1700,537.2550
20.1800,534.1475
20.1900,567.5625
20.2000,555.5150
20.2100,545.2900
20.2200,536.8800
20.2300,528.2550
20.2400,499.2300
20.2500,534.7300
20.2600,547.5675
20.2700,535.6750
20.2800,552.3300
20.2900,562.2025
20.3000,558.8725
20.3100,544.2875
20.3200,527.8600
20.3300,538.8500
20.3400,541.1825
20.3500,582.3025
20.3600,599.9600
20.3700,553.3350
20.3800,537.7825
20.3900,526.6950
20.4000,533.2025
20.4100,595.3625
20.4200,634.5050
20.4300,610.1750
20.4400,592.0875
20.4500,616.5500
20.4600,632.1800
20.4700,680.1475
20.4800,802.5400
20.4900,904.6325
20.5000,974.5075
20.5100,1015.2525
20.5200,1120.7500
20.5300,1152.9875
20.5400,1214.0000
20.5500,1312.8125
20.5600,1348.5225
20.5700,1383.6750
20.5800,1409.3950
20.5900,1358.0950
20.6000,1307.2250
20.6100,1288.9200
20.6200,1182.1350
20.6300,1111.8775
20.6400,991.0275
20.6500,865.1850
20.6600,836.8750
20.6700,813.3775
20.6800,769.4125
20.6900,737.8225
20.7000,689.9225
20.7100,653.8250
20.7200,645.1350
20.7300,671.0075
20.7400,716.6175
20.7500,772.1550
20.7600,850.3425
20.7700,926.0925
20.7800,1024.7125
20.7900,1126.9625
20.8000,1216.8150
20.8100,1274.3875
20.8200,1338.0975
20.8300,1412.6650
20.8400,1410.9300
20.8500,1456.4600
20.8600,1376.4550
20.8700,1319.8300
20.8800,1274.0725
20.8900,1226.4900
20.9000,1139.7850
20.9100,1115.4875
20.9200,1065.3625
20.9300,951.9425
20.9400,840.5325
20.9500,765.1750
20.9600,695.6975
20.9700,696.2325
20.9800,684.0600
20.9900,640.5125
21.0000,656.7125
21.0100,658.0325
21.0200,617.1375
21.0300,607.1450
21.0400,582.9175
21.0500,545.6800
21.0600,579.8275
21.0700,637.5350
21.0800,644.4550
21.0900,602.0925
21.1000,573.3325
21.1100,573.3325
21.1200,579.8400
21.1300,599.4475
21.1400,603.8925
21.1500,604.9650
21.1600,626.6675
21.1700,634.9225
21.1800,657.5825
21.1900,663.6500
21.2000,682.4325
21.2100,723.9075
21.2200,777.2400
21.2300,806.5950
21.2400,860.3375
21.2500,960.2625
21.2600,1070.9325
21.2700,1203.6875
21.2800,1343.6450
21.2900,1550.6075
21.3000,1736.0400
21.3100,1964.8700
21.3200,2294.2125
21.3300,2517.1025
21.3400,2856.6800
21.3500,3128.8125
21.3600,3307.5100
21.3700,3632.8200
21.3800,3787.1850
21.3900,3874.1450
21.4000,3995.3675
21.4100,3930.1600
21.4200,3885.5850
21.4300,3924.3975
21.4400,3839.7900
21.4500,3824.4225
21.4600,3843.8250
21.4700,3820.5300
21.4800,3959.2525
21.4900,4009.3075
21.5000,4047.4025
21.5100,4006.6850
21.5200,4175.7575
21.5300,4278.2500
21.5400,4320.8550
21.5500,4254.0225
21.5600,4004.3450
21.5700,3749.9375
21.5800,3497.4825
21.5900,3030.7100
21.6000,2658.4225
21.6100,2379.0125
21.6200,2056.0225
21.6300,1765.5475
21.6400,1589.7625
21.6500,1348.4775
21.6600,1122.2700
21.6700,1008.2475
21.6800,921.2125
21.6900,799.8225
21.7000,792.6950
21.7100,724.9050
21.7200,685.1025
21.7300,691.6875
21.7400,726.1175
21.7500,703.2700
21.7600,670.0000
21.7700,666.1550
21.7800,654.8675
21.7900,683.6900
21.8000,763.3325
21.8100,754.2225
21.8200,739.9825
21.8300,817.7875
21.8400,913.3050
21.8500,992.5850
21.8600,1017.6325
21.8700,1155.7600
21.8800,1346.3600
21.8900,1532.8950
21.9000,1708.6300
21.9100,1908.6400
21.9200,2025.3700
21.9300,2085.8350
21.9400,2105.9400
21.9500,2114.9225
21.9600,2119.1300
21.9700,1940.8900
21.9800,1737.9200
21.9900,1548.5700
22.0000,1467.5150
22.0100,1302.0525
22.0200,1175.9725
22.0300,983.0950
22.0400,908.7700
22.0500,837.9925
22.0600,709.7900
22.0700,627.7775
22.0800,592.8300
22.0900,553.7875
22.1000,594.3025
22.1100,553.5100
22.1200,578.6375
22.1300,567.8975
22.1400,555.4650
22.1500,598.0925
22.1600,615.8925
22.1700,578.7400
22.1800,652.6675
22.1900,661.2925
22.2000,709.9750
22.2100,721.3550
22.2200,728.4375
22.2300,793.9250
22.2400,821.7300
22.2500,877.7900
22.2600,926.1675
22.2700,1024.8975
22.2800,1180.4075
22.2900,1301.0925
22.3000,1420.5575
22.3100,1563.3150
22.3200,1642.1050
22.3300,1741.0700
22.3400,1736.1900
22.3500,1642.0700
22.3600,1666.3275
22.3700,1585.6200
22.3800,1468.6750
22.3900,1345.8800
22.4000,1250.9275
22.4100,1078.0475
22.4200,936.0525
22.4300,861.8600
22.4400,801.5825
22.4500,756.7475
22.4600,711.1625
22.4700,638.8125
22.4800,627.4200
22.4900,592.3475
22.5000,551.9775
22.5100,530.0000
22.5200,527.0950
22.5300,512.1750
22.5400,500.3300
22.5500,465.4125
22.5600,450.7575
22.5700,484.3925
22.5800,471.0700
22.5900,462.2525
22.6000,472.2125
22.6100,468.3425
22.6200,478.8900
22.6300,483.9150
22.6400,453.3325
22.6500,460.4600
22.6600,493.9375
22.6700,476.7400
22.6800,466.4875
22.6900,508.0700
22.7000,539.2900
22.7100,473.2075
22.7200,424.7750
22.7300,453.1675
22.7400,465.2725
22.7500,439.4775
22.7600,436.1475
22.7700,440.0650
22.7800,478.2125
22.7900,478.4650
22.8000,439.9650
22.8100,477.6825
22.8200,467.1725
22.8300,382.6975
22.8400,425.6650
22.8500,472.1900
22.8600,441.2225
22.8700,417.3850
22.8800,463.4275
22.8900,480.8975
22.9000,466.1825
22.9100,459.9575
22.9200,448.1525
22.9300,488.0800
22.9400,440.4625
22.9500,466.1650
22.9600,483.3325
22.9700,480.5325
22.9800,462.8700
22.9900,453.9975
23.0000,425.8500
23.0100,481.5075
23.0200,476.3575
23.0300,504.9275
23.0400,428.2050
23.0500,421.1300
23.0600,448.2250
23.0700,434.4600
23.0800,424.3875
23.0900,448.1000
23.1000,411.1650
23.1100,397.5300
23.1200,409.7600
23.1300,454.1850
23.1400,460.4225
23.1500,466.2800
23.1600,485.4125
23.1700,481.6550
23.1800,514.6000
23.1900,502.0525
23.2000,510.9550
23.2100,464.3225
23.2200,425.7500
23.2300,445.7350
23.2400,454.5825
23.2500,395.1375
23.2600,441.9700
23.2700,508.2275
23.2800,517.2875
23.2900,490.5075
23.3000,449.0700
23.3100,486.8775
23.3200,435.9125
23.3300,439.7425
23.3400,512.2025
23.3500,472.6025
23.3600,440.0000
23.3700,447.6525
23.3800,507.8300
23.3900,487.1250
23.4000,462.6200
23.4100,466.5825
23.4200,550.7025
23.4300,555.9700
23.4400,553.1175
23.4500,589.2825
23.4600,674.7775
23.4700,720.0525
23.4800,775.2075
23.4900,1019.0100
23.5000,1205.8850
23.5100,1377.2550
23.5200,1655.3350
23.5300,1947.7950
23.5400,2238.0875
23.5500,2558.1400
23.5600,2827.4050
23.5700,3180.2425
23.5800,3462.6525
23.5900,3699.3350
23.6000,3859.1075
23.6100,3886.6625
23.6200,3902.3000
23.6300,3696.5675
23.6400,3394.4400
23.6500,3058.6750
23.6600,2641.0300
23.6700,2389.4425
23.6800,2183.9075
23.6900,1911.8100
23.7000,1587.6725
23.7100,1363.3950
23.7200,1162.1800
23.7300,951.6550
23.7400,817.0400
23.7500,776.6725
23.7600,690.7675
23.7700,585.1625
23.7800,605.8900
23.7900,597.1800
23.8000,609.1625
23.8100,679.4975
23.8200,668.3675
23.8300,613.3000
23.8400,696.4225
23.8500,695.4975
23.8600,722.3825
23.8700,705.0575
23.8800,644.6550
23.8900,702.2950
23.9000,636.7350
23.9100,549.1400
23.9200,584.4450
23.9300,599.5600
23.9400,590.0750
23.9500,540.7575
23.9600,507.1500
23.9700,564.5900
23.9800,582.5050
23.9900,569.1825
24.0000,559.2875
24.0100,596.6175
24.0200,542.9400
24.0300,539.1850
24.0400,581.3375
24.0500,602.3900
24.0600,584.4350
24.0700,546.3000
24.0800,540.0000
24.0900,539.4650
24.1000,532.1075
24.1100,570.8650
24.1200,584.1100
24.1300,534.1500
24.1400,486.9975
24.1500,495.7725
24.1600,541.8925
24.1700,513.1750
24.1800,507.6775
24.1900,461.3700
24.2000,490.7475
24.2100,502.8450
24.2200,418.2675
24.2300,380.9925
24.2400,404.1675
24.2500,423.4700
24.2600,428.0050
24.2700,458.5550
24.2800,424.3625
24.2900,449.2425
24.3000,428.3950
24.3100,387.9975
24.3200,423.6875
24.3300,433.6800
24.3400,443.1075
24.3500,435.6725
24.3600,406.9900
24.3700,416.4550
24.3800,408.7675
24.3900,370.5000
24.4000,386.0825
24.4100,366.9500
24.4200,376.9425
24.4300,388.2800
24.4400,445.7975
24.4500,412.1525
24.4600,366.5025
24.4700,360.9500
24.4800,400.2300
24.4900,409.0400
24.5000,367.5925
24.5100,410.2750
24.5200,423.3325
24.5300,423.1425
24.5400,412.9075
24.5500,390.5225
24.5600,419.6100
24.5700,396.2950
24.5800,374.2400
24.5900,433.6200
24.6000,452.9275
24.6100,423.1200
24.6200,406.9050
24.6300,426.6300
24.6400,423.2975
24.6500,419.5850
24.6600,376.6950
24.6700,379.7050
24.6800,343.5500
24.6900,373.3775
24.7000,380.1500
24.7100,406.6025
24.7200,393.2650
24.7300,376.6450
24.7400,370.0850
24.7500,403.3400
24.7600,406.6550
24.7700,393.3350
24.7800,406.6575
24.7900,383.3675
24.8000,393.3125
24.8100,433.2125
24.8200,386.8425
24.8300,356.8050
24.8400,399.7675
24.8500,386.7475
24.8600,380.0450
24.8700,426.3075
24.8800,410.1425
24.8900,416.6050
24.9000,419.9675
24.9100,416.7025
24.9200,413.3725
24.9300,433.0850
24.9400,420.1775
24.9500,416.7125
24.9600,410.1000
24.9700,383.7500
24.9800,422.6775
24.9900,465.9225
25.0000,427.3850
25.0100,433.2075
25.0200,485.6225
25.0300,502.9950
25.0400,500.0700
25.0500,535.8625
25.0600,556.2125
25.0700,585.9625
25.0800,528.1250
25.0900,523.4175
25.1000,494.1100
25.1100,529.0225
25.1200,507.3075
25.1300,458.0800
25.1400,485.7950
25.1500,525.4725
25.1600,513.7425
25.1700,523.0200
25.1800,523.3325
25.1900,594.2475
25.2000,590.2250
25.2100,583.5650
25.2200,602.6250
25.2300,606.5450
25.2400,632.3475
25.2500,607.6725
25.2600,699.6075
25.2700,693.7275
25.2800,677.3350
25.2900,753.3925
25.3000,887.6325
25.3100,1011.4250
25.3200,1112.3375
25.3300,1138.9725
25.3400,1159.1025
25.3500,1207.7175
25.3600,1206.8225
25.3700,1171.7325
25.3800,1090.6700
25.3900,1070.8150
25.4000,1041.4900
25.4100,1024.1750
25.4200,963.2450
25.4300,783.0425
25.4400,735.4450
25.4500,711.2500
25.4600,678.4800
25.4700,635.7250
25.4800,542.0775
25.4900,514.6575
25.5000,513.3325
25.5100,491.3625
25.5200,499.4075
25.5300,487.4650
25.5400,445.9650
25.5500,427.6925
25.5600,429.7925
25.5700,430.0000
25.5800,451.8425
25.5900,381.6275
25.6000,367.3225
25.6100,410.2400
25.6200,416.4425
25.6300,398.0250
25.6400,365.6225
25.6500,375.7400
25.6600,382.8650
25.6700,392.6225
25.6800,436.6450
25.6900,443.0900
25.7000,393.9175
25.7100,427.0300
25.7200,433.0825
25.7300,399.4475
25.7400,445.9125
25.7500,434.6250
25.7600,421.0425
25.7700,401.5800
25.7800,357.0600
25.7900,359.4625
25.8000,402.8675
25.8100,376.0750
25.8200,348.8800
25.8300,368.0450
25.8400,366.9475
25.8500,381.9100
25.8600,383.3325
25.8700,395.5075
25.8800,414.9100
25.8900,413.6275
25.9000,413.3325
25.9100,364.8100
25.9200,387.2700
25.9300,399.0825
25.9400,421.1725
25.9500,374.9800
25.9600,366.9800
25.9700,387.7850
25.9800,374.9300
25.9900,343.2175
26.0000,346.0175
26.0100,379.7350
26.0200,374.3225
26.0300,346.3250
26.0400,367.3175
26.0500,343.0400
26.0600,390.8775
26.0700,432.5500
26.0800,382.8900
26.0900,373.6825
26.1000,373.3325
26.1100,358.4350
26.1200,419.1825
26.1300,429.6400
26.1400,438.9150
26.1500,431.0925
26.1600,456.6950
26.1700,445.1825
26.1800,464.0600
26.1900,457.7925
26.2000,474.4000
26.2100,500.2900
26.2200,506.2825
26.2300,542.0375
26.2400,602.6200
26.2500,586.4625
26.2600,609.7900
26.2700,622.1450
26.2800,658.5450
26.2900,645.7425
26.3000,672.6225
26.3100,717.6350
26.3200,626.8525
26.3300,595.8075
26.3400,613.7625
26.3500,669.1475
26.3600,708.7100
26.3700,634.7550
26.3800,649.5025
26.3900,638.8075
26.4000,567.0125
26.4100,576.9650
26.4200,577.1025
26.4300,533.2525
26.4400,575.8250
26.4500,516.8875
26.4600,495.1225
26.4700,476.0325
26.4800,510.7850
26.4900,522.4225
26.5000,457.1925
26.5100,449.5400
26.5200,450.0000
26.5300,381.1775
26.5400,430.1650
26.5500,440.0000
26.5600,382.8075
26.5700,376.1900
26.5800,379.5200
26.5900,454.1425
26.6000,443.8750
26.6100,397.3050
26.6200,381.4700
26.6300,405.5675
26.6400,381.6175
26.6500,407.8575
26.6600,399.1675
26.6700,385.3450
26.6800,414.4375
26.6900,442.6000
26.7000,418.4450
26.7100,371.0400
26.7200,366.1500
26.7300,366.6675
26.7400,391.9700
26.7500,391.0500
26.7600,406.8375
26.7700,398.7850
26.7800,427.4750
26.7900,408.1500
26.8000,372.5825
26.8100,366.6675
26.8200,377.8275
26.8300,349.3375
26.8400,376.7525
26.8500,380.5500
26.8600,366.1025
26.8700,357.7800
26.8800,373.3125
26.8900,360.0375
26.9000,373.2800
26.9100,376.6675
26.9200,382.1925
26.9300,391.6150
26.9400,376.7850
26.9500,370.5775
26.9600,328.7100
26.9700,358.5000
26.9800,388.6450
26.9900,379.6100
27.0000,420.5400
27.0100,421.7825
27.0200,387.1600
27.0300,396.4050
27.0400,405.4625
27.0500,363.0075
27.0600,350.6075
27.0700,360.8925
27.0800,404.1425
27.0900,424.2050
27.1000,456.5350
27.1100,398.2300
27.1200,386.0425
27.1300,424.5675
27.1400,411.6975
27.1500,398.5600
27.1600,383.1700
27.1700,382.6975
27.1800,377.9450
27.1900,363.2100
27.2000,394.9500
27.2100,406.0200
27.2200,430.8150
27.2300,439.3475
27.2400,440.0000
27.2500,423.9500
27.2600,473.4500
27.2700,489.3375
27.2800,479.3325
27.2900,487.3250
27.3000,505.9700
27.3100,499.3650
27.3200,517.9175
27.3300,597.6375
27.3400,722.7075
27.3500,784.4275
27.3600,840.9550
27.3700,879.7625
27.3800,950.0350
27.3900,1048.4325
27.4000,1098.9850
27.4100,1217.2225
27.4200,1299.2575
27.4300,1379.0050
27.4400,1380.9225
27.4500,1360.9375
27.4600,1285.9575
27.4700,1190.7975
27.4800,1128.1850
27.4900,1121.8875
27.5000,1019.0075
27.5100,963.9450
27.5200,873.3775
27.5300,790.1975
27.5400,669.4375
27.5500,601.0800
27.5600,556.3025
27.5700,590.6850
27.5800,569.7075
27.5900,503.1525
27.6000,440.2025
27.6100,408.6150
27.6200,421.3650
27.6300,447.2525
27.6400,435.3400
27.6500,445.4075
27.6600,434.6075
27.6700,453.0625
27.6800,442.0800
27.6900,441.7800
27.7000,473.9875
27.7100,475.6775
27.7200,427.4475
27.7300,380.2300
27.7400,410.7000
27.7500,413.1700
27.7600,374.4625
27.7700,393.7625
27.7800,378.0025
27.7900,387.7125
27.8000,416.0825
27.8100,418.2825
27.8200,406.5775
27.8300,423.4900
27.8400,412.3825
27.8500,436.8375
27.8600,424.0625
27.8700,434.2300
27.8800,457.5425
27.8900,468.3400
27.9000,457.4950
27.9100,448.3375
27.9200,404.2425
27.9300,399.9700
27.9400,438.1950
27.9500,412.6875
27.9600,372.6675
27.9700,398.0825
27.9800,457.1075
27.9900,480.7625
28.0000,468.4900
28.0100,408.9650
28.0200,382.5950
28.0300,424.3875
28.0400,449.8525
28.0500,445.9525
28.0600,448.2500
28.0700,393.5300
28.0800,410.1225
28.0900,428.2325
28.1000,425.1050
28.1100,420.8900
28.1200,434.6500
28.1300,442.4400
28.1400,484.7525
28.1500,504.8675
28.1600,487.2175
28.1700,465.4300
28.1800,472.1275
28.1900,488.7825
28.2000,488.4925
28.2100,455.2375
28.2200,460.2375
28.2300,459.4300
28.2400,451.8475
28.2500,474.0700
28.2600,483.3325
28.2700,502.5450
28.2800,510.0000
28.2900,555.5275
28.3000,570.9400
28.3100,584.3450
28.3200,566.1175
28.3300,554.2800
28.3400,534.2700
28.3500,550.4675
28.3600,619.4350
28.3700,664.7050
28.3800,673.3325
28.3900,706.5050
28.4000,776.8000
28.4100,816.5475
28.4200,861.1150
28.4300,975.7275
28.4400,1037.8700
28.4500,1197.2750
28.4600,1368.1250
28.4700,1533.0750
28.4800,1674.7950
28.4900,1842.1700
28.5000,2109.5900
28.5100,2178.9650
28.5200,2293.7250
28.5300,2393.3025
28.5400,2515.8125
28.5500,2543.7150
28.5600,2597.0825
28.5700,2732.4225
28.5800,2742.9075
28.5900,2698.8775
28.6000,2762.9950
28.6100,2766.6325
28.6200,2787.9475
28.6300,2955.4575
28.6400,3071.6800
28.6500,3081.8350
28.6600,3111.1200
28.6700,3106.0200
28.6800,2963.7600
28.6900,2747.6925
28.7000,2546.3575
28.7100,2438.7150
28.7200,2329.9975
28.7300,2242.1600
28.7400,2088.0275
28.7500,1928.9400
28.7600,1812.9625
28.7700,1777.7325
28.7800,1690.6100
28.7900,1742.7425
28.8000,1865.7425
28.8100,1878.5100
28.8200,1950.0625
28.8300,2127.3275
28.8400,2287.7725
28.8500,2521.9875
28.8600,2815.2225
28.8700,3173.2325
28.8800,3499.1675
28.8900,3563.1400
28.9000,3647.1275
28.9100,3707.8150
28.9200,3668.7925
28.9300,3662.2375
28.9400,3636.6750
28.9500,3535.6750
28.9600,3672.8600
28.9700,3761.1200
28.9800,3616.2850
28.9900,3426.2925
29.0000,3181.3925
29.0100,2895.0100
29.0200,2578.8400
29.0300,2365.5775
29.0400,2214.5625
29.0500,2020.8375
29.0600,1922.5825
29.0700,1835.6475
29.0800,1731.1400
29.0900,1666.1250
29.1000,1687.0400
29.1100,1689.2575
29.1200,1638.7050
29.1300,1675.2775
29.1400,1862.7700
29.1500,2130.7275
29.1600,2580.3625
29.1700,3148.0075
29.1800,3752.4450
29.1900,4562.5375
29.2000,5611.8900
29.2100,6839.6375
29.2200,8125.2675
29.2300,9492.3700
29.2400,10994.5000
29.2500,12505.9525
29.2600,13847.3750
29.2700,14997.5675
29.2800,16107.9950
29.2900,16834.6425
29.3000,16506.6200
29.3100,15864.3300
29.3200,15139.7350
29.3300,14156.1600
29.3400,12873.1425
29.3500,11498.3900
29.3600,10394.6850
29.3700,9308.1900
29.3800,8309.8850
29.3900,7300.1225
29.4000,6177.2900
29.4100,5106.6175
29.4200,4153.1775
29.4300,3267.7525
29.4400,2565.4650
29.4500,2104.3950
29.4600,1721.7850
29.4700,1443.5700
29.4800,1313.4875
29.4900,1262.5900
29.5000,1171.2800
29.5100,1075.7475
29.5200,974.3475
29.5300,839.2025
29.5400,851.3425
29.5500,903.6250
29.5600,840.1125
29.5700,806.9300
29.5800,815.3825
29.5900,794.1450
29.6000,759.5525
29.6100,756.8775
29.6200,744.9775
29.6300,692.5975
29.6400,684.9725
29.6500,682.4475
29.6600,673.3325
29.6700,703.7250
29.6800,741.5450
29.6900,718.9800
29.7000,664.3775
29.7100,643.3325
29.7200,691.6375
29.7300,699.2125
29.7400,645.1950
29.7500,611.9825
29.7600,620.6800
29.7700,606.0075
29.7800,576.0225
29.7900,590.5950
29.8000,624.5875
29.8100,612.8025
29.8200,580.7800
29.8300,595.7825
29.8400,581.6450
29.8500,581.7575
29.8600,594.6925
29.8700,605.1675
29.8800,601.5150
29.8900,609.0700
29.9000,633.7525
29.9100,688.4550
29.9200,708.2450
29.9300,684.3475
29.9400,657.7025
29.9500,633.0075
29.9600,650.6125
29.9700,706.9700
29.9800,770.2525
29.9900,796.6675
30.0000,839.2975
30.0100,928.0550
30.0200,1033.7700
30.0300,1155.2625
30.0400,1271.6675
30.0500,1389.7950
30.0600,1433.7250
30.0700,1578.2750
30.0800,1822.2325
30.0900,1933.3950
30.1000,1991.1100
30.1100,2089.6450
30.1200,2195.7450
30.1300,2274.2550
30.1400,2368.4150
30.1500,2528.1700
30.1600,2632.7400
30.1700,2735.1575
30.1800,2835.9050
30.1900,2919.9450
30.2000,3217.7250
30.2100,3370.0550
30.2200,3300.9650
30.2300,3237.6825
30.2400,3232.4850
30.2500,3167.6750
30.2600,3060.3600
30.2700,3077.0400
30.2800,3109.2150
30.2900,3034.5000
30.3000,2953.9925
30.3100,2868.4075
30.3200,2796.2900
30.3300,2670.8700
30.3400,2496.5225
30.3500,2419.2900
30.3600,2413.3325
30.3700,2400.4600
30.3800,2467.1275
30.3900,2601.5125
30.4000,2892.5400
30.4100,3213.1450
30.4200,3562.8150
30.4300,3976.6250
30.4400,4515.5825
30.4500,5187.4750
30.4600,5741.6950
30.4700,6184.0850
30.4800,6186.0775
30.4900,5927.8425
30.5000,5794.0650
30.5100,5667.3925
30.5200,5405.7050
30.5300,5198.6825
30.5400,5035.9800
30.5500,4853.2350
30.5600,4713.1000
30.5700,4614.5250
30.5800,4404.7950
30.5900,4038.3600
30.6000,3790.8900
30.6100,3616.1800
30.6200,3311.2800
30.6300,3062.5425
30.6400,2860.4000
30.6500,2692.5550
30.6600,2496.5375
30.6700,2268.7125
30.6800,2065.2925
30.6900,1884.9350
30.7000,1769.0500
30.7100,1646.5650
30.7200,1562.5425
30.7300,1457.7675
30.7400,1254.8325
30.7500,1094.6750
30.7600,999.6800
30.7700,932.5425
30.7800,911.6025
30.7900,897.9100
30.8000,847.0025
30.8100,799.6700
30.8200,774.5275
30.8300,785.7475
30.8400,767.1525
30.8500,781.4250
30.8600,857.2525
30.8700,919.2350
30.8800,949.8525
30.8900,950.1350
30.9000,931.1975
30.9100,911.7525
30.9200,931.9000
30.9300,921.3175
30.9400,849.4225
30.9500,759.5325
30.9600,730.1225
30.9700,736.6150
30.9800,718.2625
30.9900,696.6225
31.0000,639.8675
31.0100,546.6075
31.0200,501.6650
31.0300,529.9475
31.0400,551.6850
31.0500,515.1625
31.0600,476.7125
31.0700,499.7500
31.0800,533.3000
31.0900,493.8300
31.1000,448.3550
31.1100,463.0900
31.1200,488.1975
31.1300,462.2925
31.1400,423.3975
31.1500,434.6850
31.1600,440.2250
31.1700,436.5050
31.1800,443.3325
31.1900,440.0925
31.2000,439.9025
31.2100,444.9500
31.2200,445.0525
31.2300,444.9450
31.2400,430.5900
31.2500,408.5175
31.2600,430.5750
31.2700,469.6000
31.2800,468.8200
31.2900,458.2600
31.3000,453.6325
31.3100,456.2025
31.3200,449.2150
31.3300,460.0950
31.3400,502.8200
31.3500,508.5975
31.3600,497.0300
31.3700,477.4125
31.3800,457.0500
31.3900,443.7275
31.4000,424.1425
31.4100,435.0050
31.4200,488.2950
31.4300,488.6325
31.4400,456.6675
31.4500,462.8750
31.4600,462.2525
31.4700,474.9900
31.4800,495.3675
31.4900,483.8325
31.5000,464.3550
31.5100,448.4625
31.5200,445.1325
31.5300,447.9275
31.5400,445.6900
31.5500,419.8825
31.5600,421.3250
31.5700,469.4750
31.5800,483.0050
31.5900,453.0300
31.6000,439.6925
31.6100,431.2525
31.6200,433.2475
31.6300,430.7625
31.6400,404.8350
31.6500,442.6525
31.6600,470.2025
31.6700,432.0700
31.6800,404.0350
31.6900,420.4900
31.7000,436.6225
31.7100,436.3200
31.7200,456.6675
31.7300,475.8850
31.7400,489.6700
31.7500,454.5700
31.7600,422.2550
31.7700,422.5375
31.7800,447.5825
31.7900,459.7625
31.8000,414.5475
31.8100,371.8750
31.8200,378.7275
31.8300,390.0000
31.8400,407.3925
31.8500,419.8725
31.8600,423.9950
31.8700,413.5125
31.8800,364.2450
31.8900,350.9225
31.9000,357.6700
31.9100,372.3725
31.9200,376.6650
31.9300,372.8925
31.9400,372.7700
31.9500,438.8450
31.9600,471.0700
31.9700,425.9425
31.9800,410.2850
31.9900,422.0525
32.0000,399.6300
32.0100,406.8575
32.0200,421.5875
32.0300,408.6000
32.0400,396.8900
32.0500,391.6975
32.0600,411.6825
32.0700,420.5550
32.0800,416.6675
32.0900,415.2825
32.1000,431.2875
32.1100,453.9100
32.1200,410.1000
32.1300,365.6925
32.1400,388.8150
32.1500,385.7225
32.1600,376.8275
32.1700,378.4900
32.1800,372.1075
32.1900,384.0725
32.2000,404.9025
32.2100,426.6675
32.2200,419.9175
32.2300,410.0000
32.2400,400.5900
32.2500,401.4275
32.2600,442.0825
32.2700,443.2700
32.2800,388.6600
32.2900,381.3125
32.3000,411.3050
32.3100,419.3550
32.3200,406.7150
32.3300,391.3825
32.3400,387.2875
32.3500,401.2275
32.3600,419.8975
32.3700,415.5850
32.3800,402.4875
32.3900,401.0050
32.4000,370.1550
32.4100,371.7000
32.4200,397.7850
32.4300,407.4100
32.4400,402.0400
32.4500,402.5800
32.4600,416.9625
32.4700,423.0600
32.4800,406.6675
32.4900,427.1325
32.5000,465.1050
32.5100,469.5125
32.5200,472.2325
32.5300,480.3225
32.5400,488.9900
32.5500,489.6775
32.5600,447.5650
32.5700,482.6475
32.5800,502.4225
32.5900,485.8625
32.6000,497.9150
32.6100,457.1300
32.6200,415.8225
32.6300,432.4250
32.6400,440.9325
32.6500,428.6625
32.6600,442.0975
32.6700,416.5875
32.6800,395.1100
32.6900,426.6675
32.7000,413.1975
32.7100,404.6600
32.7200,406.8350
32.7300,392.2150
32.7400,416.0300
32.7500,380.0000
32.7600,393.2975
32.7700,417.8725
32.7800,412.7775
32.7900,397.5975
32.8000,386.1425
32.8100,366.1575
32.8200,362.8800
32.8300,382.3800
32.8400,400.9225
32.8500,430.2225
32.8600,421.2900
32.8700,405.1350
32.8800,424.3125
32.8900,425.8750
32.9000,419.0800
32.9100,390.1750
32.9200,402.5025
32.9300,414.4975
32.9400,428.2875
32.9500,444.2025
32.9600,420.6075
32.9700,419.7525
32.9800,452.9675
32.9900,413.7975
33.0000,382.4000
33.0100,400.1975
33.0200,425.8875
33.0300,448.8600
33.0400,440.9850
33.0500,430.0000
33.0600,419.8200
33.0700,395.4875
33.0800,388.9175
33.0900,397.8275
33.1000,412.2700
33.1100,427.8050
33.1200,442.2450
33.1300,445.5425
33.1400,435.5525
33.1500,445.5600
33.1600,464.3300
33.1700,490.1275
33.1800,465.4675
33.1900,471.2625
33.2000,463.0900
33.2100,496.6675
33.2200,482.5000
33.2300,454.4200
33.2400,471.8500
33.2500,480.6125
33.2600,441.9675
33.2700,473.9975
33.2800,502.2600
33.2900,489.2850
33.3000,476.2875
33.3100,505.1975
33.3200,504.1825
33.3300,468.6400
33.3400,483.1750
33.3500,500.5625
33.3600,523.3325
33.3700,502.3125
33.3800,469.2475
33.3900,506.0800
33.4000,527.7100
33.4100,526.8775
33.4200,507.5425
33.4300,472.7500
33.4400,471.1300
33.4500,497.1500
33.4600,479.2225
33.4700,476.1525
33.4800,496.1375
33.4900,505.9200
33.5000,506.8425
33.5100,541.1650
33.5200,559.5800
33.5300,539.2925
33.5400,548.1325
33.5500,604.0675
33.5600,635.6650
33.5700,636.3325
33.5800,644.3300
33.5900,649.6500
33.6000,673.5300
33.6100,714.3225
33.6200,702.8500
33.6300,661.1425
33.6400,676.3225
33.6500,745.7075
33.6600,705.2875
33.6700,717.7925
33.6800,762.8975
33.6900,861.5475
33.7000,964.0600
33.7100,1049.0750
33.7200,1179.2875
33.7300,1308.5250
33.7400,1573.2625
33.7500,1915.8225
33.7600,2268.8500
33.7700,2767.4725
33.7800,3286.6625
33.7900,3767.3525
33.8000,4185.0225
33.8100,4473.5800
33.8200,4701.8750
33.8300,4952.0050
33.8400,4890.2375
33.8500,4894.3925
33.8600,4800.5725
33.8700,4560.8400
33.8800,4053.9050
33.8900,3638.8900
33.9000,3373.6475
33.9100,3201.5850
33.9200,2983.8625
33.9300,2741.3300
33.9400,2470.3075
33.9500,2206.6150
33.9600,1936.0975
33.9700,1700.5100
33.9800,1444.0875
33.9900,1164.4875
34.0000,1045.3400
34.0100,1055.5625
34.0200,1030.0625
34.0300,1009.2125
34.0400,1059.4900
34.0500,1056.4925
34.0600,1028.8625
34.0700,1086.4550
34.0800,1030.4350
34.0900,1060.8675
34.1000,1046.0450
34.1100,976.8425
34.1200,915.7025
34.1300,909.3300
34.1400,929.2300
34.1500,922.1875
34.1600,882.5475
34.1700,884.0725
34.1800,859.0700
34.1900,829.9325
34.2000,822.5875
34.2100,875.0575
34.2200,940.0175
34.2300,984.2025
34.2400,939.9825
34.2500,945.0425
34.2600,947.3025
34.2700,994.2500
34.2800,995.5000
34.2900,1062.3125
34.3000,1063.9600
34.3100,959.8075
34.3200,885.0500
34.3300,884.0300
34.3400,895.8625
34.3500,892.5325
34.3600,902.7775
34.3700,940.1500
34.3800,926.8250
34.3900,906.3825
34.4000,888.3150
34.4100,936.6675
34.4200,935.1000
34.4300,951.8675
34.4400,1028.7825
34.4500,1034.2525
34.4600,987.9200
34.4700,976.9375
34.4800,1005.3775
34.4900,1045.5425
34.5000,1097.1000
34.5100,1018.4775
34.5200,1011.8175
34.5300,999.1075
34.5400,974.8400
34.5500,983.0025
34.5600,1009.7950
34.5700,1062.1925
34.5800,1033.2875
34.5900,982.2225
34.6000,968.1425
34.6100,963.0325
34.6200,936.9325
34.6300,963.1050
34.6400,928.8500
34.6500,908.3650
34.6600,807.3900
34.6700,804.9550
34.6800,781.6400
34.6900,749.7375
34.7000,690.7300
34.7100,655.2450
34.7200,636.5450
34.7300,583.1375
34.7400,576.3275
34.7500,593.6950
34.7600,549.7550
34.7700,483.0725
34.7800,527.6250
34.7900,538.7100
34.8000,468.6250
34.8100,455.7925
34.8200,430.7650
34.8300,441.9025
34.8400,406.3800
34.8500,348.7825
34.8600,384.0075
34.8700,385.9950
34.8800,384.0025
34.8900,392.6575
34.9000,409.3725
34.9100,384.6250
34.9200,402.0175
34.9300,401.9125
34.9400,419.4150
34.9500,399.4300
34.9600,394.3525
34.9700,435.4800
34.9800,408.3050
34.9900,367.5675
35.0000,354.8225
35.0100,403.9700
35.0200,404.1325
35.0300,385.1325
35.0400,358.7950
35.0500,391.6600
35.0600,371.8700
35.0700,381.2425
35.0800,391.6125
35.0900,415.7975
35.1000,421.1475
35.1100,397.2775
35.1200,406.6925
35.1300,433.0300
35.1400,413.0450
35.1500,397.8675
35.1600,403.3325
35.1700,406.9100
35.1800,422.7400
35.1900,418.8175
35.2000,419.2200
35.2100,445.4950
35.2200,437.6650
35.2300,430.7350
35.2400,441.3200
35.2500,395.9675
35.2600,374.3725
35.2700,370.7600
35.2800,401.5475
35.2900,385.1625
35.3000,419.9000
35.3100,388.3500
35.3200,400.5800
35.3300,427.7900
35.3400,453.9250
35.3500,393.8600
35.3600,414.4325
35.3700,423.2800
35.3800,439.4550
35.3900,437.2075
35.4000,435.6875
35.4100,412.7975
35.4200,407.3275
35.4300,393.8650
35.4400,397.1950
35.4500,394.2050
35.4600,368.5775
35.4700,395.6225
35.4800,383.7650
35.4900,349.4825
35.5000,351.2975
35.5100,379.2275
35.5200,395.3725
35.5300,412.2450
35.5400,435.2575
35.5500,391.5075
35.5600,405.4975
35.5700,431.1950
35.5800,400.9900
35.5900,413.5625
35.6000,454.8025
35.6100,462.3575
35.6200,466.8550
35.6300,528.5975
35.6400,545.7625
35.6500,578.5675
35.6600,566.1975
35.6700,547.1175
35.6800,574.2350
35.6900,600.0000
35.7000,607.4500
35.7100,643.1450
35.7200,584.6075
35.7300,612.8750
35.7400,622.3075
35.7500,706.8000
35.7600,755.4100
35.7700,794.0350
35.7800,830.7050
35.7900,913.3075
35.8000,1020.2925
35.8100,1162.5475
35.8200,1231.1875
35.8300,1292.8775
35.8400,1363.1375
35.8500,1416.1050
35.8600,1478.2950
35.8700,1463.2750
35.8800,1435.7825
35.8900,1378.5775
35.9000,1179.1650
35.9100,1144.6125
35.9200,1101.7225
35.9300,1053.1525
35.9400,952.1875
35.9500,918.7850
35.9600,910.8050
35.9700,908.2700
35.9800,839.5125
35.9900,781.5325
36.0000,732.3425
36.0100,652.7300
36.0200,676.4350
36.0300,700.3850
36.0400,699.1225
36.0500,664.0025
36.0600,650.5150
36.0700,708.1700
36.0800,720.3725
36.0900,726.6700
36.1000,759.5950
36.1100,807.8050
36.1200,778.0050
36.1300,679.2775
36.1400,679.4300
36.1500,725.7250
36.1600,684.6925
36.1700,640.3525
36.1800,641.5875
36.1900,625.2800
36.2000,614.3650
36.2100,619.2325
36.2200,580.9575
36.2300,553.5975
36.2400,491.6475
36.2500,447.3300
36.2600,454.3225
36.2700,461.6975
36.2800,445.0425
36.2900,421.6150
36.3000,344.9350
36.3100,366.9900
36.3200,433.3325
36.3300,429.5775
36.3400,398.3025
36.3500,441.1200
36.3600,385.4450
36.3700,375.7600
36.3800,398.7975
36.3900,387.5625
36.4000,394.5950
36.4100,369.5150
36.4200,332.9125
36.4300,366.2225
36.4400,396.6675
36.4500,395.8150
36.4600,385.5400
36.4700,374.4500
36.4800,388.8825
36.4900,411.1375
36.5000,387.2100
36.5100,398.4600
36.5200,451.3175
36.5300,392.3850
36.5400,421.3125
36.5500,436.9275
36.5600,440.7725
36.5700,451.2775
36.5800,469.7050
36.5900,499.6450
36.6000,417.3075
36.6100,467.4050
36.6200,475.4475
36.6300,460.0000
36.6400,460.9550
36.6500,471.9150
36.6600,451.9300
36.6700,432.6375
36.6800,426.0850
36.6900,463.1075
36.7000,456.8550
36.7100,411.7775
36.7200,392.1975
36.7300,421.5925
36.7400,394.9450
36.7500,371.7025
36.7600,400.8725
36.7700,458.7575
36.7800,388.7675
36.7900,370.0000
36.8000,371.4050
36.8100,394.3250
36.8200,406.2725
36.8300,347.2475
36.8400,360.3025
36.8500,418.1100
36.8600,385.7325
36.8700,371.1050
36.8800,389.4550
36.8900,379.2825
36.9000,367.5525
36.9100,385.0825
36.9200,415.9775
36.9300,402.4825
36.9400,386.1625
36.9500,377.1625
36.9600,389.9300
36.9700,451.4050
36.9800,412.8575
36.9900,404.8950
37.0000,437.4350
37.0100,454.5450
37.0200,478.8075
37.0300,452.7475
37.0400,438.9900
37.0500,416.6675
37.0600,416.8075
37.0700,418.6275
37.0800,388.1500
37.0900,422.9350
37.1000,413.9850
37.1100,430.7675
37.1200,450.1250
37.1300,452.3475
37.1400,427.1500
37.1500,439.8825
37.1600,437.0150
37.1700,445.1875
37.1800,402.6650
37.1900,385.5175
37.2000,448.7175
37.2100,409.5825
37.2200,398.3025
37.2300,450.9975
37.2400,484.6000
37.2500,524.4775
37.2600,450.4650
37.2700,467.1200
37.2800,482.8925
37.2900,467.3525
37.3000,494.7525
37.3100,549.4325
37.3200,526.9825
37.3300,541.3775
37.3400,599.7775
37.3500,590.9350
37.3600,634.8650
37.3700,707.8100
37.3800,763.5925
37.3900,777.5425
37.4000,825.3225
37.4100,933.5650
37.4200,948.5600
37.4300,1061.8675
37.4400,1176.2575
37.4500,1151.8500
37.4600,1277.5025
37.4700,1337.9000
37.4800,1431.6275
37.4900,1562.2475
37.5000,1750.3725
37.5100,1785.4925
37.5200,1993.6100
37.5300,2362.1450
37.5400,2599.2325
37.5500,2904.8950
37.5600,3107.5750
37.5700,3237.3800
37.5800,3350.0750
37.5900,3362.6300
37.6000,3219.5500
37.6100,3112.8400
37.6200,2973.3900
37.6300,2992.7325
37.6400,2713.1100
37.6500,2559.9925
37.6600,2549.9975
37.6700,2506.6925
37.6800,2406.7975
37.6900,2250.3125
37.7000,2226.7300
37.7100,2093.7825
37.7200,1977.1400
37.7300,1973.3500
37.7400,1900.3975
37.7500,1803.9250
37.7600,1707.3250
37.7700,1809.2250
37.7800,1694.2875
37.7900,1842.0050
37.8000,1899.4600
37.8100,1777.9300
37.8200,2050.3125
37.8300,2175.2350
37.8400,2232.6375
37.8500,2391.2575
37.8600,2511.6950
37.8700,2546.1875
37.8800,2589.3500
37.8900,2665.4625
37.9000,2699.4525
37.9100,2621.3650
37.9200,2475.9375
37.9300,2260.6625
37.9400,2132.4225
37.9500,1966.6350
37.9600,1950.2725
37.9700,1861.9050
37.9800,1788.2700
37.9900,1656.3375
38.0000,1497.0475
38.0100,1369.6925
38.0200,1249.6150
38.0300,1269.4100
38.0400,1282.9875
38.0500,1059.4550
38.0600,858.7925
38.0700,791.7725
38.0800,783.5250
38.0900,721.8575
38.1000,694.1325
38.1100,654.5600
38.1200,630.7325
38.1300,652.5850
38.1400,653.3325
38.1500,672.6650
38.1600,641.1350
38.1700,623.9125
38.1800,713.3600
38.1900,796.9925
38.2000,783.9475
38.2100,844.2950
38.2200,881.9350
38.2300,969.8400
38.2400,1066.1850
38.2500,1236.3750
38.2600,1384.0125
38.2700,1415.5600
38.2800,1579.4975
38.2900,1765.3350
38.3000,1919.9950
38.3100,2034.9925
38.3200,1998.6100
38.3300,2047.5725
38.3400,2263.0125
38.3500,2193.9075
38.3600,1964.5875
38.3700,1861.3275
38.3800,1771.0675
38.3900,1630.4375
38.4000,1588.5075
38.4100,1583.5025
38.4200,1437.9075
38.4300,1411.0450
38.4400,1410.0000
38.4500,1346.9050
38.4600,1147.8775
38.4700,1045.3075
38.4800,914.0775
38.4900,815.4375
38.5000,772.2775
38.5100,754.2925
38.5200,668.5775
38.5300,622.5525
38.5400,635.6725
38.5500,595.9450
38.5600,587.0725
38.5700,552.2575
38.5800,512.4900
38.5900,494.3825
38.6000,474.6050
38.6100,507.6450
38.6200,481.9475
38.6300,473.7700
38.6400,507.5725
38.6500,463.3450
38.6600,497.2975
38.6700,462.7300
38.6800,509.6600
38.6900,497.8250
38.7000,468.7725
38.7100,497.6375
38.7200,500.0000
38.7300,490.7225
38.7400,493.0900
38.7500,490.2450
38.7600,483.8275
38.7700,443.2425
38.7800,436.9175
38.7900,485.9375
38.8000,502.3100
38.8100,494.1075
38.8200,514.8425
38.8300,541.2325
38.8400,555.6075
38.8500,614.9275
38.8600,672.0900
38.8700,731.7800
38.8800,794.8025
38.8900,916.1875
38.9000,966.3850
38.9100,988.3200
38.9200,1072.3775
38.9300,1049.5125
38.9400,1067.9925
38.9500,1155.2450
38.9600,1053.8125
38.9700,970.3725
38.9800,935.9925
38.9900,981.9050
39.0000,913.8625
39.0100,824.8200
39.0200,831.8125
39.0300,827.2800
39.0400,820.6175
39.0500,856.2725
39.0600,847.9175
39.0700,774.2275
39.0800,691.2625
39.0900,617.0275
39.1000,567.8350
39.1100,566.3425
39.1200,596.7400
39.1300,615.0275
39.1400,583.6325
39.1500,607.0075
39.1600,604.0025
39.1700,639.2925
39.1800,634.3500
39.1900,726.0950
39.2000,820.3900
39.2100,830.0000
39.2200,859.8575
39.2300,997.6000
39.2400,1067.0000
39.2500,1097.1675
39.2600,1171.4525
39.2700,1147.2750
39.2800,1051.1725
39.2900,1114.2700
39.3000,1197.5475
39.3100,1064.2775
39.3200,969.5950
39.3300,921.4925
39.3400,904.8275
39.3500,915.1650
39.3600,934.4000
39.3700,948.4800
39.3800,952.9525
39.3900,858.9550
39.4000,796.5650
39.4100,745.8250
39.4200,801.8000
39.4300,765.8875
39.4400,668.9025
39.4500,668.4125
39.4600,711.0800
39.4700,710.8025
39.4800,803.7625
39.4900,957.2075
39.5000,988.3700
39.5100,1101.1000
39.5200,1262.7450
39.5300,1350.4800
39.5400,1508.7825
39.5500,1701.9975
39.5600,1819.8850
39.5700,2040.0100
39.5800,2296.8875
39.5900,2292.2125
39.6000,2260.5250
39.6100,2233.4475
39.6200,2035.6775
39.6300,1789.3000
39.6400,1614.7575
39.6500,1454.4200
39.6600,1401.5225
39.6700,1419.7850
39.6800,1478.2000
39.6900,1454.9250
39.7000,1314.4775
39.7100,1215.5375
39.7200,996.0300
39.7300,1012.2450
39.7400,859.0000
39.7500,778.7475
39.7600,738.4200
39.7700,641.5350
39.7800,577.9350
39.7900,567.1350
39.8000,563.8050
39.8100,540.4500
39.8200,496.6525
39.8300,481.4325
39.8400,480.0000
39.8500,442.9250
39.8600,430.9675
39.8700,421.4575
39.8800,420.0000
39.8900,445.5925
39.9000,438.6350
39.9100,433.8275
39.9200,427.6575
39.9300,412.4900
39.9400,412.8325
39.9500,461.4600
39.9600,475.6575
39.9700,437.0900
39.9800,404.5775
39.9900,377.4175
40.0000,393.0775
40.0100,413.5775
40.0200,408.2175
40.0300,389.7800
40.0400,364.1675
40.0500,371.2400
40.0600,376.1425
40.0700,404.7275
40.0800,376.3525
40.0900,355.9900
40.1000,426.1300
40.1100,426.0100
40.1200,412.1500
40.1300,449.1125
40.1400,406.4175
40.1500,407.8250
40.1600,418.3625
40.1700,394.9300
40.1800,406.7000
40.1900,404.4375
40.2000,392.2150
40.2100,406.6625
40.2200,462.7275
40.2300,473.3325
40.2400,462.2500
40.2500,410.1575
40.2600,388.9325
40.2700,408.7850
40.2800,457.5400
40.2900,441.8200
40.3000,409.0800
40.3100,411.6025
40.3200,462.9175
40.3300,451.3125
40.3400,449.4175
40.3500,452.7475
40.3600,469.8125
40.3700,459.6100
40.3800,541.6825
40.3900,494.2300
40.4000,490.9525
40.4100,479.6525
40.4200,468.4650
40.4300,453.0050
40.4400,466.3825
40.4500,459.0875
40.4600,443.0350
40.4700,461.7925
40.4800,496.6100
40.4900,503.3325
40.5000,533.2325
40.5100,550.8650
40.5200,575.0450
40.5300,555.5925
40.5400,560.8400
40.5500,574.1650
40.5600,598.3150
40.5700,597.9250
40.5800,634.4925
40.5900,619.0350
40.6000,715.8525
40.6100,783.1350
40.6200,817.5775
40.6300,917.5475
40.6400,1157.8750
40.6500,1320.2000
40.6600,1480.9575
40.6700,1760.2425
40.6800,2050.6350
40.6900,2511.3150
40.7000,2923.3025
40.7100,3232.7925
40.7200,3594.8125
40.7300,3795.5750
40.7400,3874.7225
40.7500,3713.2600
40.7600,3590.0250
40.7700,3319.6025
40.7800,3078.3250
40.7900,2815.2275
40.8000,2619.1350
40.8100,2469.1325
40.8200,2275.4625
40.8300,2344.7100
40.8400,2402.4825
40.8500,2306.7325
40.8600,2129.1850
40.8700,1886.4200
40.8800,1608.7700
40.8900,1407.4425
40.9000,1230.1875
40.9100,1085.2575
40.9200,956.5750
40.9300,843.1425
40.9400,730.5775
40.9500,648.8500
40.9600,628.0800
40.9700,589.9300
40.9800,548.5350
40.9900,540.0000
41.0000,576.6550
41.0100,563.1200
41.0200,535.7525
41.0300,498.6525
41.0400,479.5575
41.0500,471.4500
41.0600,430.9025
41.0700,451.2525
41.0800,467.8075
41.0900,433.5925
41.1000,415.5375
41.1100,431.5100
41.1200,447.0450
41.1300,457.7775
41.1400,408.1850
41.1500,403.6875
41.1600,409.2525
41.1700,371.2275
41.1800,372.9150
41.1900,366.3425
41.2000,358.1750
41.2100,392.7475
41.2200,382.7325
41.2300,407.5450
41.2400,408.9525
41.2500,416.9450
41.2600,399.4600
41.2700,380.5050
41.2800,399.7375
41.2900,414.3525
41.3000,424.3450
41.3100,413.8775
41.3200,415.1125
41.3300,454.9750
41.3400,476.8750
41.3500,431.5500
41.3600,416.6675
41.3700,398.8425
41.3800,413.6875
41.3900,445.4225
41.4000,438.0900
41.4100,453.6400
41.4200,485.3650
41.4300,442.6400
41.4400,403.8725
41.4500,442.2200
41.4600,446.5500
41.4700,468.6025
41.4800,469.0925
41.4900,471.7125
41.5000,465.7700
41.5100,460.8150
41.5200,434.8250
41.5300,459.3675
41.5400,487.5950
41.5500,478.2625
41.5600,473.3325
41.5700,473.3325
41.5800,483.3575
41.5900,499.1875
41.6000,488.3200
41.6100,428.3275
41.6200,432.4850
41.6300,464.9650
41.6400,435.9150
41.6500,408.3775
41.6600,430.7325
41.6700,435.0225
41.6800,423.3850
41.6900,412.5450
41.7000,410.0000
41.7100,462.1075
41.7200,487.4375
41.7300,490.0000
41.7400,485.0475
41.7500,493.2275
41.7600,496.6675
41.7700,464.5550
41.7800,490.3550
41.7900,532.9300
41.8000,597.5500
41.8100,636.3675
41.8200,660.5575
41.8300,723.2200
41.8400,755.6175
41.8500,912.2125
41.8600,1104.0450
41.8700,1204.8100
41.8800,1377.6475
41.8900,1580.1875
41.9000,1811.8700
41.9100,1910.8800
41.9200,2045.4325
41.9300,2121.7225
41.9400,2228.4250
41.9500,2309.6250
41.9600,2204.9375
41.9700,2050.5275
41.9800,1973.5375
41.9900,1884.7000
42.0000,1754.7275
42.0100,1619.6550
42.0200,1522.7475
42.0300,1524.2150
42.0400,1557.5300
42.0500,1520.7275
42.0600,1459.8450
42.0700,1358.8350
42.0800,1249.4700
42.0900,1075.3675
42.1000,909.2000
42.1100,765.5775
42.1200,692.9950
42.1300,648.7575
42.1400,639.0675
42.1500,606.4075
42.1600,566.9575
42.1700,551.8750
42.1800,504.5125
42.1900,462.7450
42.2000,486.7975
42.2100,511.9425
42.2200,435.5175
42.2300,384.2550
42.2400,379.0500
42.2500,432.3875
42.2600,469.9900
42.2700,464.7775
42.2800,457.6250
42.2900,482.7800
42.3000,514.6825
42.3100,497.2600
42.3200,507.9825
42.3300,535.6000
42.3400,555.1575
42.3500,560.0000
42.3600,538.7475
42.3700,560.6725
42.3800,556.8300
42.3900,554.7125
42.4000,559.0200
42.4100,567.0575
42.4200,570.0000
42.4300,570.0000
42.4400,607.5500
42.4500,611.6075
42.4600,620.7275
42.4700,673.4975
42.4800,681.6350
42.4900,690.6950
42.5000,701.3400
42.5100,717.3400
42.5200,765.3200
42.5300,781.0025
42.5400,752.0525
42.5500,728.3650
42.5600,709.3800
42.5700,673.1250
42.5800,653.0350
42.5900,636.0800
42.6000,632.3175
42.6100,617.1175
42.6200,570.6475
42.6300,546.3950
42.6400,550.2675
42.6500,546.4050
42.6600,557.1800
42.6700,561.0275
42.6800,546.1750
42.6900,540.0000
42.7000,477.8825
42.7100,491.3800
42.7200,461.7600
42.7300,449.1825
42.7400,425.8100
42.7500,415.6250
42.7600,405.2150
42.7700,395.4225
42.7800,413.9125
42.7900,391.3450
42.8000,376.6675
42.8100,381.2300
42.8200,383.3325
42.8300,394.7225
42.8400,406.8275
42.8500,414.5475
42.8600,396.2125
42.8700,402.5625
42.8800,434.9600
42.8900,455.7350
42.9000,437.3425
42.9100,456.0975
42.9200,445.1150
42.9300,483.0625
42.9400,508.9250
42.9500,528.0550
42.9600,516.3700
42.9700,531.4550
42.9800,516.3125
42.9900,510.0825
43.0000,533.5675
43.0100,523.1125
43.0200,522.3125
43.0300,540.1250
43.0400,522.0100
43.0500,487.6025
43.0600,501.2850
43.0700,490.9700
43.0800,459.8875
43.0900,472.3300
43.1000,458.7900
43.1100,442.2075
43.1200,422.1775
43.1300,433.3675
43.1400,436.6600
43.1500,411.1075
43.1600,411.1050
43.1700,412.2275
43.1800,445.4800
43.1900,452.2550
43.2000,433.3825
43.2100,413.3925
43.2200,422.1425
43.2300,434.4175
43.2400,423.4225
43.2500,434.3125
43.2600,460.9650
43.2700,483.2125
43.2800,448.1875
43.2900,415.6725
43.3000,447.3525
43.3100,475.4500
43.3200,495.3575
43.3300,512.1025
43.3400,521.0475
43.3500,497.0675
43.3600,478.9600
43.3700,485.4075
43.3800,498.7350
43.3900,529.5200
43.4000,499.7250
43.4100,441.8050
43.4200,475.5850
43.4300,520.7375
43.4400,493.0450
43.4500,455.9575
43.4600,453.1775
43.4700,500.0425
43.4800,549.3400
43.4900,561.1675
43.5000,564.3275
43.5100,568.8300
43.5200,589.4450
43.5300,638.8600
43.5400,694.5150
43.5500,737.0450
43.5600,795.2325
43.5700,867.3500
43.5800,947.1000
43.5900,991.7100
43.6000,1092.3350
43.6100,1164.7900
43.6200,1206.6825
43.6300,1313.3150
43.6400,1436.1200
43.6500,1500.1975
43.6600,1568.9075
43.6700,1580.7775
43.6800,1508.1075
43.6900,1464.8025
43.7000,1415.2500
43.7100,1383.6125
43.7200,1369.3625
43.7300,1301.6775
43.7400,1298.5325
43.7500,1265.7175
43.7600,1247.2725
43.7700,1283.0075
43.7800,1223.7525
43.7900,1114.3925
43.8000,1042.8300
43.8100,983.1850
43.8200,953.6650
43.8300,905.6925
43.8400,858.9175
43.8500,840.3475
43.8600,834.5625
43.8700,833.3325
43.8800,818.6200
43.8900,822.6025
43.9000,785.9275
43.9100,780.9700
43.9200,820.5750
43.9300,853.4175
43.9400,873.7950
43.9500,919.7225
43.9600,951.6900
43.9700,1071.4775
43.9800,1152.5150
43.9900,1189.1800
44.0000,1264.9825
44.0100,1381.1650
44.0200,1402.9650
44.0300,1357.5750
44.0400,1304.7025
44.0500,1254.2875
44.0600,1180.6900
44.0700,1144.5950
44.0800,1120.5625
44.0900,1075.6400
44.1000,1031.8650
44.1100,998.0775
44.1200,999.0500
44.1300,1035.5375
44.1400,1034.7875
44.1500,998.6250
44.1600,975.1025
44.1700,914.4900
44.1800,898.4900
44.1900,862.7850
44.2000,845.6400
44.2100,851.2825
44.2200,831.5675
44.2300,815.9075
44.2400,827.6475
44.2500,881.6225
44.2600,875.2875
44.2700,818.6475
44.2800,825.2100
44.2900,843.3325
44.3000,800.5825
44.3100,740.7875
44.3200,693.5750
44.3300,703.0700
44.3400,685.4975
44.3500,628.8575
44.3600,622.8775
44.3700,649.5325
44.3800,655.9525
44.3900,655.3550
44.4000,626.3625
44.4100,600.6100
44.4200,574.4775
44.4300,562.0150
44.4400,569.3750
44.4500,551.1925
44.4600,536.6675
44.4700,534.6575
44.4800,553.4150
44.4900,538.5750
44.5000,495.9375
44.5100,461.9675
44.5200,470.0200
44.5300,483.3325
44.5400,465.3425
44.5500,447.3400
44.5600,427.3650
44.5700,414.6725
44.5800,431.2700
44.5900,433.3750
44.6000,418.7075
44.6100,407.3675
44.6200,381.4750
44.6300,358.7250
44.6400,379.1250
44.6500,384.7725
44.6600,370.7225
44.6700,366.6675
44.6800,368.6450
44.6900,379.8825
44.7000,424.1925
44.7100,461.8425
44.7200,440.4175
44.7300,392.4100
44.7400,387.1175
44.7500,418.3100
44.7600,454.9625
44.7700,489.6475
44.7800,509.2225
44.7900,503.5250
44.8000,541.7525
44.8100,583.1275
44.8200,572.3850
44.8300,569.7800
44.8400,658.7525
44.8500,697.1375
44.8600,677.4800
44.8700,644.0825
44.8800,611.6425
44.8900,570.2325
44.9000,525.2650
44.9100,510.0000
44.9200,506.1150
44.9300,487.8025
44.9400,455.3275
44.9500,478.7675
44.9600,487.2975
44.9700,479.1400
44.9800,502.6725
44.9900,491.5425
45.0000,442.4350
45.0100,412.2800
45.0200,416.3075
45.0300,446.4550
45.0400,442.1550
45.0500,413.2000
45.0600,411.0225
45.0700,416.6675
45.0800,391.7100
45.0900,350.3150
45.1000,352.5025
45.1100,378.1600
45.1200,392.4075
45.1300,390.9300
45.1400,369.4675
45.1500,345.2075
45.1600,361.4750
45.1700,383.8125
45.1800,377.1400
45.1900,387.1350
45.2000,367.6550
45.2100,368.0475
45.2200,382.8675
45.2300,389.4925
45.2400,438.4000
45.2500,441.5675
45.2600,440.8350
45.2700,420.7050
45.2800,408.4650
45.2900,427.5600
45.3000,433.3325
45.3100,459.7525
45.3200,489.4300
45.3300,455.2100
45.3400,436.5150
45.3500,459.8375
45.3600,460.6000
45.3700,474.0000
45.3800,495.6325
45.3900,477.4875
45.4000,452.5025
45.4100,446.6675
45.4200,456.0250
45.4300,472.6850
45.4400,455.7000
45.4500,436.6675
45.4600,434.8000
45.4700,457.5775
45.4800,471.0750
45.4900,455.4925
45.5000,411.3100
45.5100,392.6300
45.5200,414.8650
45.5300,432.2375
45.5400,438.5225
45.5500,464.1025
45.5600,449.9850
45.5700,425.1850
45.5800,452.5675
45.5900,482.5775
45.6000,506.6250
45.6100,556.9200
45.6200,590.3550
45.6300,611.7650
45.6400,641.4025
45.6500,673.5800
45.6600,693.6775
45.6700,727.9100
45.6800,762.5150
45.6900,801.2000
45.7000,826.6675
45.7100,812.0050
45.7200,770.7000
45.7300,730.1975
45.7400,723.9800
45.7500,735.4825
45.7600,756.4325
45.7700,755.4025
45.7800,743.3325
45.7900,774.3075
45.8000,829.1300
45.8100,809.6700
45.8200,767.8800
45.8300,770.6000
45.8400,705.8675
45.8500,697.4600
45.8600,723.6850
45.8700,710.0000
45.8800,673.7975
45.8900,634.2900
45.9000,653.7800
45.9100,689.3100
45.9200,647.6575
45.9300,597.9225
45.9400,575.3100
45.9500,561.8000
45.9600,541.7375
45.9700,505.3500
45.9800,477.4200
45.9900,470.2575
46.0000,482.3050
46.0100,481.0325
46.0200,457.2050
46.0300,446.9150
46.0400,450.0000
46.0500,451.7875
46.0600,431.8900
46.0700,406.1900
46.0800,416.0575
46.0900,415.7350
46.1000,406.8975
46.1100,392.1950
46.1200,385.5625
46.1300,377.3325
46.1400,358.0025
46.1500,397.7175
46.1600,431.3450
46.1700,410.7100
46.1800,401.9825
46.1900,406.6675
46.2000,415.5125
46.2100,407.4225
46.2200,405.7000
46.2300,423.7275
46.2400,401.7750
46.2500,364.3275
46.2600,370.9500
46.2700,386.6675
46.2800,416.5725
46.2900,448.6075
46.3000,434.0100
46.3100,402.6225
46.3200,423.3300
46.3300,437.5575
46.3400,440.8500
46.3500,474.1700
46.3600,456.7650
46.3700,445.8950
46.3800,503.5075
46.3900,546.9825
46.4000,567.2875
46.4100,613.1175
46.4200,617.2050
46.4300,603.7775
46.4400,649.8600
46.4500,685.0725
46.4600,674.5075
46.4700,673.7475
46.4800,695.4750
46.4900,699.7325
46.5000,662.1550
46.5100,624.6775
46.5200,639.1525
46.5300,666.9150
46.5400,662.9700
46.5500,686.1300
46.5600,701.1425
46.5700,638.4025
46.5800,595.0550
46.5900,593.2250
46.6000,583.1200
46.6100,585.2625
46.6200,605.3575
46.6300,609.8000
46.6400,591.3250
46.6500,547.4300
46.6600,499.5375
46.6700,493.6050
46.6800,506.7550
46.6900,501.4525
46.7000,500.1675
46.7100,513.4950
46.7200,487.5875
46.7300,437.9150
46.7400,404.6675
46.7500,400.2150
46.7600,401.4925
46.7700,437.5375
46.7800,478.3000
46.7900,459.6875
46.8000,436.5475
46.8100,411.3500
46.8200,393.3325
46.8300,389.9475
46.8400,391.7425
46.8500,398.3575
46.8600,418.5875
46.8700,404.5825
46.8800,353.0850
46.8900,387.2950
46.9000,451.7950
46.9100,419.5500
46.9200,371.6175
46.9300,378.4400
46.9400,400.0825
46.9500,403.2825
46.9600,391.6325
46.9700,379.9575
46.9800,383.3900
46.9900,398.3575
47.0000,399.9850
47.0100,400.0125
47.0200,386.6175
47.0300,364.9875
47.0400,391.7175
47.0500,425.0025
47.0600,430.0000
47.0700,449.9925
47.0800,466.6675
47.0900,478.3125
47.1000,501.6375
47.1100,514.9950
47.1200,531.6100
47.1300,556.6225
47.1400,603.1475
47.1500,598.5725
47.1600,579.8525
47.1700,618.2275
47.1800,646.5650
47.1900,668.2650
47.2000,675.0150
47.2100,678.2850
47.2200,663.5400
47.2300,616.9600
47.2400,581.7625
47.2500,584.8575
47.2600,596.6675
47.2700,581.8700
47.2800,561.7375
47.2900,553.3825
47.3000,572.9725
47.3100,580.2700
47.3200,517.4500
47.3300,479.8250
47.3400,468.7250
47.3500,469.5625
47.3600,481.8925
47.3700,435.7000
47.3800,386.9425
47.3900,404.3275
47.4000,395.9125
47.4100,382.6575
47.4200,419.8450
47.4300,413.6500
47.4400,398.3750
47.4500,414.5400
47.4600,421.9650
47.4700,387.2800
47.4800,381.1725
47.4900,403.2425
47.5000,401.8075
47.5100,386.9550
47.5200,383.1375
47.5300,390.0000
47.5400,399.6925
47.5500,405.1575
47.5600,409.6800
47.5700,423.2250
47.5800,439.5575
47.5900,456.5550
47.6000,466.4375
47.6100,468.5075
47.6200,468.1550
47.6300,489.3975
47.6400,517.9025
47.6500,534.8125
47.6600,572.0650
47.6700,593.8475
47.6800,543.1725
47.6900,496.9325
47.7000,483.6025
47.7100,484.6575
47.7200,486.9450
47.7300,467.2300
47.7400,424.6200
47.7500,410.8700
47.7600,442.7450
47.7700,455.0750
47.7800,432.6475
47.7900,400.4575
47.8000,415.4275
47.8100,435.3925
47.8200,420.3175
47.8300,426.0225
47.8400,422.5625
47.8500,398.5800
47.8600,417.0825
47.8700,443.3325
47.8800,452.8225
47.8900,466.4950
47.9000,433.6725
47.9100,388.5975
47.9200,392.7975
47.9300,415.9450
47.9400,411.0950
47.9500,372.6800
47.9600,359.6275
47.9700,366.6675
47.9800,379.2400
47.9900,388.6200
48.0000,394.3225
48.0100,412.9425
48.0200,394.9150
48.0300,387.0350
48.0400,417.8300
48.0500,395.3675
48.0600,353.7450
48.0700,362.2975
48.0800,392.4975
48.0900,428.5225
48.1000,456.4550
48.1100,463.1175
48.1200,490.0425
48.1300,511.9950
48.1400,495.7725
48.1500,509.7775
48.1600,552.4375
48.1700,562.0050
48.1800,534.9275
48.1900,519.3100
48.2000,539.3050
48.2100,543.8000
48.2200,549.0600
48.2300,575.7175
48.2400,597.7350
48.2500,571.1025
48.2600,519.1825
48.2700,505.1225
48.2800,506.4200
48.2900,542.3950
48.3000,590.7925
48.3100,612.5775
48.3200,667.9900
48.3300,733.8500
48.3400,765.3800
48.3500,812.5400
48.3600,869.7100
48.3700,892.0600
48.3800,889.7350
48.3900,858.0625
48.4000,816.6675
48.4100,828.9200
48.4200,800.4700
48.4300,707.1600
48.4400,652.0800
48.4500,620.6875
48.4600,573.2000
48.4700,586.9150
48.4800,626.6675
48.4900,648.0125
48.5000,664.1900
48.5100,618.3075
48.5200,582.7550
48.5300,583.9150
48.5400,552.3425
48.5500,502.0625
48.5600,463.0000
48.5700,454.2550
48.5800,469.4000
48.5900,432.7050
48.6000,399.6950
48.6100,417.2775
48.6200,391.8400
48.6300,398.7375
48.6400,433.3325
48.6500,400.0975
48.6600,372.0800
48.6700,386.6675
48.6800,367.0600
48.6900,332.7825
48.7000,329.0400
48.7100,352.0450
48.7200,375.6950
48.7300,370.1225
48.7400,346.9950
48.7500,370.3725
48.7600,392.8225
48.7700,367.9950
48.7800,350.3350
48.7900,346.6675
48.8000,381.1225
48.8100,415.8475
48.8200,427.6150
48.8300,441.3700
48.8400,447.5925
48.8500,474.8275
48.8600,508.0200
48.8700,557.1125
48.8800,565.5250
48.8900,576.3975
48.9000,616.0325
48.9100,631.0675
48.9200,658.6925
48.9300,715.5900
48.9400,711.8025
48.9500,684.4200
48.9600,679.2725
48.9700,694.0875
48.9800,698.8825
48.9900,688.8850
49.0000,672.9625
49.0100,674.8075
49.0200,675.5725
49.0300,656.2925
49.0400,628.9525
49.0500,576.7025
49.0600,589.5375
49.0700,641.4275
49.0800,668.8525
49.0900,646.0875
49.1000,615.1225
49.1100,624.1075
49.1200,626.9700
49.1300,656.1850
49.1400,666.3725
49.1500,653.3325
49.1600,668.0225
49.1700,664.6450
49.1800,627.8625
49.1900,619.6000
49.2000,618.9350
49.2100,584.0325
49.2200,542.2750
49.2300,554.2275
49.2400,564.9650
49.2500,554.3850
49.2600,581.9175
49.2700,610.0000
49.2800,620.2175
49.2900,647.9225
49.3000,636.0475
49.3100,614.1550
49.3200,623.5575
49.3300,581.9175
49.3400,564.5500
49.3500,586.2425
49.3600,592.9075
49.3700,567.6100
49.3800,535.8075
49.3900,546.2350
49.4000,541.2975
49.4100,535.8000
49.4200,528.8425
49.4300,501.3100
49.4400,500.1325
49.4500,527.8025
49.4600,511.9600
49.4700,471.0025
49.4800,494.0025
49.4900,502.2275
49.5000,476.1175
49.5100,481.0900
49.5200,476.9325
49.5300,458.1950
49.5400,469.0125
49.5500,461.8950
49.5600,467.1950
49.5700,462.2875
49.5800,449.0825
49.5900,446.6100
49.6000,427.5900
49.6100,418.5650
49.6200,419.5350
49.6300,433.3700
49.6400,436.6350
49.6500,410.4425
49.6600,427.6900
49.6700,463.3175
49.6800,425.6875
49.6900,397.6225
49.7000,394.7600
49.7100,397.6125
49.7200,425.2300
49.7300,425.2550
49.7400,425.6850
49.7500,425.2875
49.7600,375.3000
49.7700,369.4475
49.7800,407.1150
49.7900,388.2175
49.8000,330.0950
49.8100,301.9125
49.8200,307.1025
49.8300,330.8625
49.8400,362.7700
49.8500,365.8175
49.8600,358.0075
49.8700,369.0825
49.8800,354.8350
49.8900,350.4100
49.9000,375.5625
49.9100,379.6975
49.9200,341.1175
49.9300,360.9725
49.9400,409.6050
49.9500,390.1200
49.9600,366.7900
49.9700,351.9225
49.9800,350.0000
49.9900,350.0000
50.0000,350.0000
