#Intensity_unit=cps
#Attenuator_coefficient=1.0000
10.0000,867.4900
10.0100,820.8400
10.0200,868.2475
10.0300,897.5975
10.0400,896.9675
10.0500,905.7575
10.0600,897.5775
10.0700,923.9225
10.0800,962.9925
10.0900,912.2000
10.1000,882.4675
10.1100,907.2125
10.1200,897.9100
10.1300,851.3475
10.1400,888.9475
10.1500,845.0300
10.1600,843.0175
10.1700,885.5650
10.1800,893.0150
10.1900,911.4175
10.2000,901.2825
10.2100,875.9050
10.2200,894.4075
10.2300,842.4975
10.2400,845.6900
10.2500,900.7925
10.2600,894.6425
10.2700,902.3475
10.2800,942.3775
10.2900,865.6075
10.3000,805.6500
10.3100,841.9975
10.3200,879.6500
10.3300,868.3475
10.3400,818.7275
10.3500,795.3650
10.3600,844.2250
10.3700,888.9025
10.3800,860.4300
10.3900,862.6475
10.4000,917.1325
10.4100,926.3200
10.4200,932.6400
10.4300,861.6900
10.4400,877.2050
10.4500,865.0875
10.4600,893.1475
10.4700,825.1425
10.4800,861.3500
10.4900,896.4450
10.5000,876.1875
10.5100,879.2850
10.5200,894.8700
10.5300,926.3950
10.5400,814.1100
10.5500,853.4650
10.5600,877.8150
10.5700,948.2600
10.5800,879.5375
10.5900,875.9300
10.6000,891.4875
10.6100,878.5200
10.6200,932.9350
10.6300,895.5975
10.6400,869.2875
10.6500,851.8775
10.6600,912.0850
10.6700,860.8975
10.6800,856.2875
10.6900,895.0500
10.7000,900.0000
10.7100,926.5500
10.7200,873.9725
10.7300,931.5125
10.7400,928.2150
10.7500,900.1625
10.7600,926.1050
10.7700,882.9200
10.7800,864.9025
10.7900,866.2725
10.8000,863.7275
10.8100,875.0825
10.8200,838.4975
10.8300,880.2875
10.8400,880.8000
10.8500,821.3575
10.8600,833.8500
10.8700,892.3275
10.8800,873.6450
10.8900,902.1950
10.9000,824.7500
10.9100,836.7275
10.9200,863.3850
10.9300,875.4325
10.9400,937.9950
10.9500,926.2325
10.9600,867.8950
10.9700,825.0025
10.9800,831.6600
10.9900,906.1800
11.0000,887.5425
11.0100,868.7775
11.0200,863.7575
11.0300,886.6025
11.0400,846.3925
11.0500,912.6475
11.0600,900.0975
11.0700,847.3125
11.0800,831.2950
11.0900,830.0000
11.1000,908.2800
11.1100,856.2475
11.1200,837.9775
11.1300,917.7325
11.1400,961.8325
11.1500,923.2775
11.1600,841.4950
11.1700,806.8800
11.1800,817.7750
11.1900,854.6450
11.2000,880.2000
11.2100,814.1075
11.2200,835.0475
11.2300,883.2250
11.2400,941.8475
11.2500,909.6925
11.2600,897.5775
11.2700,859.2750
11.2800,784.3350
11.2900,779.0800
11.3000,823.0825
11.3100,830.0000
11.3200,812.7825
11.3300,832.9450
11.3400,882.5350
11.3500,912.9225
11.3600,873.7075
11.3700,780.7875
11.3800,766.6675
11.3900,803.8450
11.4000,867.1700
11.4100,882.3800
11.4200,857.6325
11.4300,864.7500
11.4400,892.3425
11.4500,879.5575
11.4600,845.3150
11.4700,822.9075
11.4800,834.2375
11.4900,848.0500
11.5000,852.8450
11.5100,878.9225
11.5200,837.8650
11.5300,892.4875
11.5400,855.0700
11.5500,804.1025
11.5600,856.2275
11.5700,841.1525
11.5800,814.0000
11.5900,829.8225
11.6000,841.8250
11.6100,829.1875
11.6200,897.3600
11.6300,943.9150
11.6400,938.7000
11.6500,877.3750
11.6600,855.3775
11.6700,878.7200
11.6800,835.4075
11.6900,860.4800
11.7000,925.8100
11.7100,919.7775
11.7200,882.9050
11.7300,831.6725
11.7400,798.0375
11.7500,807.3800
11.7600,832.4625
11.7700,912.4375
11.7800,895.8125
11.7900,842.3425
11.8000,903.3825
11.8100,852.2550
11.8200,817.6075
11.8300,782.5600
11.8400,796.2400
11.8500,830.7425
11.8600,828.2875
11.8700,793.1650
11.8800,789.4575
11.8900,865.3025
11.9000,849.3375
11.9100,873.9800
11.9200,857.7225
11.9300,800.4550
11.9400,784.4375
11.9500,816.6950
11.9600,823.3325
11.9700,812.2250
11.9800,884.9475
11.9900,836.1900
12.0000,784.5125
12.0100,790.5225
12.0200,821.0325
12.0300,893.1100
12.0400,801.5225
12.0500,724.6900
12.0600,790.7250
12.0700,823.2425
12.0800,818.3825
12.0900,791.8300
12.1000,822.5225
12.1100,835.5125
12.1200,858.7075
12.1300,841.3050
12.1400,875.1950
12.1500,831.0725
12.1600,795.2575
12.1700,776.2625
12.1800,781.5725
12.1900,769.6100
12.2000,846.2175
12.2100,835.9175
12.2200,813.5600
12.2300,785.3525
12.2400,785.4750
12.2500,792.1375
12.2600,815.2050
12.2700,822.7325
12.2800,836.9875
12.2900,820.8925
12.3000,800.2975
12.3100,826.6575
12.3200,819.7075
12.3300,789.4325
12.3400,750.6700
12.3500,795.0225
12.3600,836.5750
12.3700,878.6600
12.3800,826.9175
12.3900,894.7625
12.4000,861.7900
12.4100,863.5575
12.4200,844.9875
12.4300,867.0825
12.4400,854.3875
12.4500,820.2425
12.4600,907.9600
12.4700,986.7425
12.4800,970.2950
12.4900,1001.1200
12.5000,1166.4525
12.5100,1265.3400
12.5200,1290.7775
12.5300,1255.6350
12.5400,1308.5650
12.5500,1393.2650
12.5600,1353.5500
12.5700,1318.5075
12.5800,1321.3875
12.5900,1272.3475
12.6000,1174.1775
12.6100,1091.6850
12.6200,1154.3525
12.6300,1114.4350
12.6400,1078.5950
12.6500,1046.5925
12.6600,1010.6025
12.6700,979.2950
12.6800,959.9875
12.6900,996.6850
12.7000,950.6750
12.7100,894.0325
12.7200,944.5850
12.7300,973.3075
12.7400,1037.8450
12.7500,1087.8925
12.7600,1062.1275
12.7700,1151.5750
12.7800,1250.9675
12.7900,1285.9125
12.8000,1303.2525
12.8100,1264.2850
12.8200,1237.4500
12.8300,1286.2475
12.8400,1191.5925
12.8500,1105.1975
12.8600,1060.9500
12.8700,1040.1375
12.8800,1005.0150
12.8900,972.9425
12.9000,1016.7225
12.9100,958.9125
12.9200,876.8475
12.9300,862.6300
12.9400,868.5900
12.9500,820.0975
12.9600,814.5425
12.9700,761.5775
12.9800,775.5050
12.9900,793.8125
13.0000,799.2850
13.0100,818.3175
13.0200,784.1050
13.0300,804.6975
13.0400,826.3925
13.0500,751.6900
13.0600,719.5650
13.0700,732.3100
13.0800,796.5925
13.0900,805.5225
13.1000,777.3125
13.1100,767.4000
13.1200,829.0425
13.1300,812.9025
13.1400,766.9950
13.1500,782.6075
13.1600,795.1850
13.1700,737.0800
13.1800,727.7675
13.1900,797.2750
13.2000,783.0500
13.2100,783.6700
13.2200,755.6750
13.2300,713.1150
13.2400,705.9125
13.2500,760.7975
13.2600,784.3950
13.2700,737.7550
13.2800,782.5050
13.2900,848.8500
13.3000,865.9025
13.3100,815.3125
13.3200,740.9800
13.3300,728.4625
13.3400,768.4400
13.3500,764.6325
13.3600,724.1675
13.3700,733.7950
13.3800,778.3400
13.3900,787.4450
13.4000,771.3500
13.4100,730.9525
13.4200,760.7900
13.4300,801.3575
13.4400,764.1725
13.4500,744.9125
13.4600,753.5050
13.4700,736.3375
13.4800,740.1575
13.4900,758.5600
13.5000,707.5425
13.5100,705.2050
13.5200,773.3150
13.5300,757.9000
13.5400,723.9050
13.5500,719.1950
13.5600,730.1025
13.5700,728.2850
13.5800,714.0550
13.5900,707.4800
13.6000,709.1850
13.6100,730.1400
13.6200,714.0250
13.6300,658.9025
13.6400,713.6750
13.6500,771.8150
13.6600,710.5775
13.6700,714.2450
13.6800,705.7950
13.6900,787.6300
13.7000,821.6700
13.7100,765.8275
13.7200,724.1800
13.7300,764.1075
13.7400,727.6025
13.7500,742.4150
13.7600,760.8075
13.7700,750.8825
13.7800,741.6900
13.7900,732.5400
13.8000,744.9100
13.8100,740.0675
13.8200,771.4050
13.8300,763.4950
13.8400,712.0650
13.8500,718.9525
13.8600,692.0250
13.8700,692.3625
13.8800,669.4850
13.8900,734.0775
13.9000,715.5850
13.9100,702.4650
13.9200,730.4375
13.9300,710.4525
13.9400,731.9875
13.9500,716.2850
13.9600,704.2100
13.9700,700.8775
13.9800,700.0000
13.9900,697.5475
14.0000,711.3675
14.0100,750.9425
14.0200,775.5675
14.0300,757.9975
14.0400,693.8100
14.0500,702.6300
14.0600,757.2450
14.0700,695.3225
14.0800,671.5400
14.0900,668.4650
14.1000,673.9650
14.1100,696.1125
14.1200,688.7600
14.1300,671.1975
14.1400,705.4750
14.1500,710.3050
14.1600,759.9500
14.1700,770.3200
14.1800,723.1350
14.1900,738.0825
14.2000,778.9775
14.2100,780.3475
14.2200,757.3775
14.2300,718.6750
14.2400,692.2200
14.2500,705.9150
14.2600,727.7575
14.2700,766.9675
14.2800,727.1875
14.2900,694.6725
14.3000,709.1775
14.3100,707.0850
14.3200,717.6950
14.3300,763.9925
14.3400,748.9325
14.3500,727.1150
14.3600,735.2650
14.3700,735.2300
14.3800,726.1850
14.3900,730.4750
14.4000,709.5425
14.4100,714.2625
14.4200,705.7475
14.4300,747.4725
14.4400,790.3850
14.4500,738.3775
14.4600,701.4925
14.4700,746.3625
14.4800,740.6550
14.4900,765.4425
14.5000,723.3350
14.5100,645.7375
14.5200,625.6900
14.5300,650.2225
14.5400,664.7075
14.5500,683.1300
14.5600,706.4500
14.5700,710.9850
14.5800,724.0800
14.5900,699.5200
14.6000,698.3800
14.6100,726.7425
14.6200,694.5625
14.6300,693.0275
14.6400,732.6975
14.6500,732.6650
14.6600,754.6500
14.6700,699.0975
14.6800,686.2975
14.6900,711.9450
14.7000,729.2975
14.7100,726.3650
14.7200,718.6925
14.7300,667.9675
14.7400,683.7400
14.7500,681.4775
14.7600,680.2725
14.7700,708.7600
14.7800,715.3800
14.7900,724.8725
14.8000,739.2250
14.8100,747.9425
14.8200,750.0000
14.8300,752.3000
14.8400,732.6450
14.8500,780.7525
14.8600,818.1425
14.8700,804.9900
14.8800,803.5400
14.8900,841.0075
14.9000,952.7400
14.9100,1019.5225
14.9200,1020.8650
14.9300,1062.3050
14.9400,1131.2150
14.9500,1244.4600
14.9600,1309.4300
14.9700,1326.8225
14.9800,1348.1800
14.9900,1338.5025
15.0000,1286.8925
15.0100,1289.3350
15.0200,1300.0000
15.0300,1295.4725
15.0400,1311.4225
15.0500,1299.6650
15.0600,1287.7425
15.0700,1370.1250
15.0800,1468.5975
15.0900,1550.7125
15.1000,1590.1675
15.1100,1610.1550
15.1200,1598.6975
15.1300,1551.8475
15.1400,1533.3325
15.1500,1477.3200
15.1600,1445.5225
15.1700,1418.7300
15.1800,1370.9100
15.1900,1290.8100
15.2000,1224.3025
15.2100,1184.3750
15.2200,1079.7875
15.2300,975.4750
15.2400,902.1975
15.2500,893.3300
15.2600,873.3650
15.2700,766.8550
15.2800,777.6125
15.2900,793.3825
15.3000,740.2150
15.3100,681.3050
15.3200,703.0800
15.3300,723.3325
15.3400,696.8800
15.3500,685.5350
15.3600,673.4625
15.3700,631.4900
15.3800,608.9400
15.3900,648.3675
15.4000,667.8075
15.4100,714.8675
15.4200,715.9200
15.4300,712.0825
15.4400,707.9250
15.4500,677.1350
15.4600,676.4200
15.4700,696.4100
15.4800,688.0925
15.4900,660.4200
15.5000,654.3475
15.5100,656.6675
15.5200,632.8000
15.5300,656.8525
15.5400,650.6775
15.5500,628.0100
15.5600,619.0100
15.5700,651.2275
15.5800,663.5250
15.5900,640.5950
15.6000,655.8500
15.6100,728.1100
15.6200,691.1925
15.6300,653.3325
15.6400,651.1875
15.6500,632.8450
15.6600,642.6150
15.6700,670.4575
15.6800,680.0000
15.6900,688.5475
15.7000,684.7950
15.7100,650.1425
15.7200,658.9025
15.7300,690.3625
15.7400,678.7325
15.7500,634.7950
15.7600,620.9125
15.7700,655.1475
15.7800,700.8800
15.7900,661.6250
15.8000,627.8850
15.8100,628.7800
15.8200,619.4450
15.8300,604.8975
15.8400,612.6425
15.8500,596.8425
15.8600,610.6750
15.8700,645.5775
15.8800,648.2700
15.8900,664.3050
15.9000,645.2375
15.9100,643.4125
15.9200,655.4250
15.9300,619.0600
15.9400,596.6675
15.9500,634.2025
15.9600,667.0825
15.9700,650.4375
15.9800,630.4275
15.9900,628.7450
16.0000,605.0950
16.0100,581.7075
16.0200,576.6675
16.0300,595.2925
16.0400,641.8125
16.0500,669.5300
16.0600,650.6350
16.0700,665.5275
16.0800,701.8675
16.0900,688.6450
16.1000,644.5575
16.1100,643.0950
16.1200,653.3325
16.1300,616.4425
16.1400,624.0450
16.1500,649.4700
16.1600,651.2900
16.1700,631.6275
16.1800,626.1175
16.1900,654.4475
16.2000,639.4700
16.2100,617.9675
16.2200,630.8850
16.2300,623.7650
16.2400,599.1425
16.2500,604.1775
16.2600,629.5200
16.2700,623.8300
16.2800,603.2375
16.2900,596.6675
16.3000,628.9100
16.3100,652.0125
16.3200,611.1000
16.3300,579.3150
16.3400,642.9000
16.3500,684.6625
16.3600,635.2625
16.3700,621.3425
16.3800,657.3200
16.3900,639.3850
16.4000,626.6400
16.4100,641.3050
16.4200,640.6950
16.4300,650.5875
16.4400,667.9475
16.4500,587.9925
16.4600,569.6525
16.4700,616.4725
16.4800,633.9575
16.4900,636.6675
16.5000,630.7425
16.5100,601.0250
16.5200,589.2450
16.5300,587.4275
16.5400,591.1975
16.5500,594.7025
16.5600,628.6525
16.5700,669.0150
16.5800,654.5450
16.5900,671.8750
16.6000,688.8500
16.6100,665.7675
16.6200,659.1825
16.6300,657.4900
16.6400,666.9525
16.6500,663.0600
16.6600,643.6250
16.6700,630.8475
16.6800,628.6050
16.6900,612.5825
16.7000,605.8000
16.7100,617.7250
16.7200,619.4750
16.7300,601.2500
16.7400,605.4000
16.7500,616.6675
16.7600,633.9550
16.7700,648.5850
16.7800,623.1650
16.7900,612.9075
16.8000,625.7375
16.8100,624.2675
16.8200,644.8100
16.8300,710.9925
16.8400,697.1550
16.8500,640.9775
16.8600,582.9650
16.8700,591.7575
16.8800,651.7725
16.8900,696.0600
16.9000,664.1475
16.9100,620.9975
16.9200,605.3400
16.9300,579.6975
16.9400,593.0350
16.9500,662.2475
16.9600,698.1200
16.9700,632.8450
16.9800,581.4575
16.9900,593.1100
17.0000,627.6550
17.0100,616.7675
17.0200,584.0000
17.0300,582.2600
17.0400,620.1900
17.0500,620.6225
17.0600,573.9850
17.0700,553.3325
17.0800,562.6025
17.0900,582.9625
17.1000,604.4325
17.1100,637.3525
17.1200,662.2025
17.1300,631.6400
17.1400,599.6500
17.1500,605.8625
17.1600,639.0525
17.1700,660.0000
17.1800,628.8400
17.1900,643.6100
17.2000,645.5800
17.2100,565.2050
17.2200,560.1375
17.2300,584.2225
17.2400,596.6875
17.2500,647.8775
17.2600,674.8500
17.2700,637.0575
17.2800,604.8550
17.2900,635.9050
17.3000,648.8750
17.3100,634.8625
17.3200,631.5300
17.3300,592.1775
17.3400,586.9825
17.3500,593.8300
17.3600,572.8225
17.3700,593.5550
17.3800,623.8275
17.3900,617.4825
17.4000,606.6675
17.4100,572.7725
17.4200,543.3325
17.4300,543.3325
17.4400,578.8825
17.4500,613.5500
17.4600,593.6150
17.4700,612.2975
17.4800,600.6750
17.4900,560.0000
17.5000,560.0000
17.5100,567.0500
17.5200,571.5725
17.5300,598.1300
17.5400,607.5300
17.5500,644.1950
17.5600,651.4625
17.5700,609.6675
17.5800,594.5975
17.5900,572.7050
17.6000,584.4025
17.6100,610.1475
17.6200,599.4225
17.6300,577.9825
17.6400,592.5475
17.6500,628.9250
17.6600,598.3500
17.6700,570.4900
17.6800,569.5275
17.6900,558.3900
17.7000,573.7725
17.7100,586.6675
17.7200,586.6675
17.7300,596.9575
17.7400,606.6675
17.7500,620.3525
17.7600,621.3750
17.7700,616.8250
17.7800,611.4050
17.7900,596.5950
17.8000,576.3350
17.8100,580.3700
17.8200,605.0850
17.8300,599.8400
17.8400,593.3825
17.8500,591.6000
17.8600,581.6075
17.8700,576.6675
17.8800,590.1250
17.8900,591.5725
17.9000,583.3550
17.9100,596.7200
17.9200,579.8900
17.9300,566.7050
17.9400,585.0075
17.9500,579.9975
17.9600,553.3525
17.9700,553.2925
17.9800,563.3575
17.9900,543.4000
18.0000,558.1525
18.0100,586.6675
18.0200,583.3625
18.0300,612.9875
18.0400,651.6075
18.0500,622.1225
18.0600,576.8100
18.0700,586.3525
18.0800,596.8375
18.0900,596.4825
18.1000,590.3275
18.1100,591.2825
18.1200,595.3350
18.1300,599.5275
18.1400,608.6250
18.1500,599.9125
18.1600,603.3325
18.1700,590.3850
18.1800,566.9700
18.1900,592.1775
18.2000,634.8350
18.2100,644.8300
18.2200,651.6075
18.2300,642.0975
18.2400,618.7800
18.2500,635.4800
18.2600,674.6600
18.2700,672.1600
18.2800,620.1475
18.2900,560.7475
18.3000,571.9475
18.3100,622.3825
18.3200,617.9700
18.3300,594.7500
18.3400,582.6125
18.3500,602.7975
18.3600,619.8700
18.3700,610.4625
18.3800,675.7725
18.3900,768.8525
18.4000,816.8650
18.4100,822.7250
18.4200,875.5325
18.4300,984.2000
18.4400,1089.1775
18.4500,1144.0050
18.4600,1222.1575
18.4700,1344.5400
18.4800,1497.8500
18.4900,1670.1025
18.5000,1710.8875
18.5100,1659.4475
18.5200,1621.7675
18.5300,1528.9825
18.5400,1451.5350
18.5500,1390.4500
18.5600,1240.0900
18.5700,1096.4750
18.5800,981.4150
18.5900,883.4050
18.6000,806.5050
18.6100,783.3900
18.6200,779.0450
18.6300,719.6850
18.6400,678.7925
18.6500,641.5975
18.6600,603.3325
18.6700,609.3600
18.6800,634.7200
18.6900,635.6350
18.7000,593.5000
18.7100,579.3250
18.7200,603.1175
18.7300,617.3600
18.7400,584.6550
18.7500,547.3775
18.7600,575.6725
18.7700,611.0950
18.7800,592.5900
18.7900,570.0175
18.8000,563.6750
18.8100,595.8425
18.8200,600.8550
18.8300,570.7850
18.8400,583.8875
18.8500,605.6025
18.8600,591.2175
18.8700,575.6150
18.8800,588.9700
18.8900,624.9875
18.9000,606.5450
18.9100,570.5950
18.9200,597.4000
18.9300,598.2850
18.9400,532.4175
18.9500,529.5150
18.9600,575.5900
18.9700,558.1050
18.9800,560.0000
18.9900,580.0775
19.0000,600.9400
19.0100,570.4625
19.0200,579.9625
19.0300,619.0850
19.0400,588.6200
19.0500,570.4925
19.0600,563.8300
19.0700,561.4150
19.0800,554.8525
19.0900,539.1000
19.1000,551.6475
19.1100,568.2275
19.1200,538.4100
19.1300,514.7350
19.1400,533.4625
19.1500,551.0775
19.1600,544.7275
19.1700,542.4875
19.1800,526.9325
19.1900,543.8725
19.2000,553.4050
19.2100,523.2700
19.2200,556.3350
19.2300,590.6850
19.2400,629.6375
19.2500,644.7075
19.2600,610.9925
19.2700,549.0425
19.2800,533.3325
19.2900,529.2375
19.3000,523.3325
19.3100,526.0550
19.3200,532.7175
19.3300,531.2425
19.3400,519.2725
19.3500,530.9000
19.3600,558.0150
19.3700,553.2675
19.3800,531.2350
19.3900,516.0175
19.4000,546.7925
19.4100,571.9550
19.4200,533.9800
19.4300,507.3350
19.4400,515.3075
19.4500,533.3325
19.4600,510.7950
19.4700,503.1350
19.4800,551.2600
19.4900,573.8825
19.5000,576.8350
19.5100,546.1550
19.5200,556.2350
19.5300,584.8825
19.5400,557.5175
19.5500,521.1525
19.5600,493.1800
19.5700,537.1350
19.5800,565.3425
19.5900,525.3700
19.6000,532.3850
19.6100,535.0500
19.6200,520.5325
19.6300,539.5275
19.6400,575.4050
19.6500,573.0900
19.6600,531.2800
19.6700,523.1200
19.6800,523.2350
19.6900,558.9050
19.7000,560.6350
19.7100,537.4650
19.7200,544.7175
19.7300,534.2925
19.7400,499.2700
19.7500,542.6450
19.7600,563.6775
19.7700,514.1075
19.7800,489.1750
19.7900,518.7400
19.8000,552.0275
19.8100,560.9425
19.8200,533.2650
19.8300,533.8900
19.8400,528.9300
19.8500,558.0250
19.8600,538.4050
19.8700,532.4600
19.8800,535.4400
19.8900,546.8100
19.9000,589.5625
19.9100,622.1125
19.9200,637.0525
19.9300,689.7625
19.9400,771.2500
19.9500,869.9725
19.9600,917.8750
19.9700,967.0400
19.9800,1053.6125
19.9900,1033.5675
20.0000,1027.4350
20.0100,1097.6075
20.0200,1125.5800
20.0300,1154.7250
20.0400,1075.9725
20.0500,1029.0400
20.0600,1006.0825
20.0700,924.7400
20.0800,848.9650
20.0900,804.8900
20.1000,784.5075
20.1100,757.3425
20.1200,695.1400
20.1300,676.4950
20.1400,660.6725
20.1500,644.4975
20.1600,626.9275
20.1700,583.0475
20.1800,554.9675
20.1900,541.6675
20.2000,558.4850
20.2100,527.4725
20.2200,510.0000
20.2300,507.7100
20.2400,512.4700
20.2500,526.5800
20.2600,520.0000
20.2700,521.1350
20.2800,530.1275
20.2900,530.9025
20.3000,519.0725
20.3100,536.5800
20.3200,518.8425
20.3300,514.4825
20.3400,524.4525
20.3500,526.6675
20.3600,521.1000
20.3700,533.3300
20.3800,570.0225
20.3900,552.2125
20.4000,550.0425
20.4100,528.9575
20.4200,526.5225
20.4300,569.7825
20.4400,581.4475
20.4500,542.1250
20.4600,563.1375
20.4700,587.6825
20.4800,607.5125
20.4900,630.0000
20.5000,658.0750
20.5100,728.5175
20.5200,754.4075
20.5300,786.7000
20.5400,854.2800
20.5500,910.3175
20.5600,1061.1400
20.5700,1159.3700
20.5800,1105.9100
20.5900,1041.0575
20.6000,1026.4400
20.6100,973.1475
20.6200,935.6150
20.6300,932.2850
20.6400,894.4325
20.6500,802.0550
20.6600,781.4550
20.6700,782.7725
20.6800,721.7075
20.6900,696.0950
20.7000,659.3675
20.7100,628.7725
20.7200,654.0925
20.7300,646.6500
20.7400,680.7550
20.7500,687.9600
20.7600,698.5900
20.7700,757.6850
20.7800,820.4200
20.7900,858.8825
20.8000,928.1325
20.8100,1002.1600
20.8200,1092.7075
20.8300,1136.0000
20.8400,1138.0275
20.8500,1124.9300
20.8600,1148.0850
20.8700,1120.9900
20.8800,1116.4175
20.8900,1080.2875
20.9000,999.9075
20.9100,908.2325
20.9200,858.4775
20.9300,798.8600
20.9400,776.1075
20.9500,756.9575
20.9600,722.6800
20.9700,688.9375
20.9800,654.5800
20.9900,611.8600
21.0000,600.0000
21.0100,608.6075
21.0200,624.2775
21.0300,610.9525
21.0400,620.9250
21.0500,629.5875
21.0600,607.1100
21.0700,614.7825
21.0800,593.0925
21.0900,548.1275
21.1000,548.9400
21.1100,591.2925
21.1200,663.3325
21.1300,642.9375
21.1400,609.4175
21.1500,642.4800
21.1600,600.3450
21.1700,632.9325
21.1800,689.6750
21.1900,670.8775
21.2000,660.3150
21.2100,706.6500
21.2200,722.4725
21.2300,702.3600
21.2400,764.4725
21.2500,899.8800
21.2600,1000.7425
21.2700,1093.3850
21.2800,1330.7675
21.2900,1546.6200
21.3000,1792.1300
21.3100,2233.7700
21.3200,2533.5800
21.3300,2977.3100
21.3400,3476.9225
21.3500,3982.1525
21.3600,4364.0275
21.3700,4722.8950
21.3800,5016.1000
21.3900,5091.3675
21.4000,5067.5275
21.4100,5104.3325
21.4200,5158.8300
21.4300,4961.7300
21.4400,4697.8125
21.4500,4496.4850
21.4600,4401.5250
21.4700,4249.6450
21.4800,4343.9575
21.4900,4224.6750
21.5000,4042.4075
21.5100,4014.1875
21.5200,4146.7450
21.5300,4021.0325
21.5400,3894.3300
21.5500,3774.0600
21.5600,3524.2000
21.5700,3319.5875
21.5800,3205.0325
21.5900,2995.2800
21.6000,2685.7250
21.6100,2421.7300
21.6200,2088.9275
21.6300,1846.1175
21.6400,1689.8900
21.6500,1456.8550
21.6600,1296.9000
21.6700,1200.3050
21.6800,1102.1275
21.6900,989.4025
21.7000,854.0425
21.7100,786.4675
21.7200,818.1150
21.7300,741.9925
21.7400,713.4625
21.7500,666.9025
21.7600,658.2100
21.7700,652.5650
21.7800,616.6675
21.7900,631.9525
21.8000,682.5725
21.8100,676.9625
21.8200,660.6125
21.8300,647.5425
21.8400,689.8725
21.8500,739.1725
21.8600,732.0025
21.8700,825.6950
21.8800,931.8600
21.8900,969.2225
21.9000,1074.9825
21.9100,1250.3900
21.9200,1413.8250
21.9300,1493.2300
21.9400,1522.4825
21.9500,1537.5375
21.9600,1524.6075
21.9700,1544.7000
21.9800,1501.1475
21.9900,1425.2350
22.0000,1283.6600
22.0100,1165.3850
22.0200,1061.9275
22.0300,961.5475
22.0400,914.5600
22.0500,835.6850
22.0600,735.7600
22.0700,656.6675
22.0800,642.1375
22.0900,575.6375
22.1000,545.6975
22.1100,593.3325
22.1200,596.7425
22.1300,599.1300
22.1400,556.6675
22.1500,566.7825
22.1600,605.3225
22.1700,614.0550
22.1800,672.0000
22.1900,691.9575
22.2000,732.0600
22.2100,697.3625
22.2200,695.8600
22.2300,768.0075
22.2400,919.7750
22.2500,971.0375
22.2600,1045.7675
22.2700,1203.3850
22.2800,1399.0150
22.2900,1602.8725
22.3000,1738.7975
22.3100,1884.0800
22.3200,2044.5975
22.3300,2069.5000
22.3400,2135.1625
22.3500,2072.8925
22.3600,2129.0375
22.3700,2051.1925
22.3800,1942.6450
22.3900,1726.4950
22.4000,1554.1625
22.4100,1490.1950
22.4200,1365.4425
22.4300,1244.6375
22.4400,1107.1500
22.4500,981.1775
22.4600,862.1125
22.4700,777.6250
22.4800,757.7975
22.4900,698.4175
22.5000,612.7475
22.5100,601.2450
22.5200,550.7025
22.5300,515.9250
22.5400,564.6075
22.5500,569.4600
22.5600,491.2350
22.5700,512.7650
22.5800,506.0375
22.5900,484.4125
22.6000,475.5775
22.6100,491.1325
22.6200,506.1075
22.6300,474.4275
22.6400,490.0575
22.6500,453.3775
22.6600,442.6700
22.6700,476.0500
22.6800,494.8650
22.6900,511.3900
22.7000,469.3450
22.7100,479.0700
22.7200,460.3800
22.7300,482.6400
22.7400,497.1925
22.7500,504.7050
22.7600,522.1950
22.7700,475.8575
22.7800,458.4850
22.7900,486.1550
22.8000,478.7425
22.8100,450.7950
22.8200,437.1725
22.8300,433.9700
22.8400,402.0000
22.8500,424.2750
22.8600,478.2550
22.8700,425.0775
22.8800,404.9925
22.8900,452.3600
22.9000,444.7275
22.9100,434.7800
22.9200,439.4975
22.9300,412.3725
22.9400,392.8350
22.9500,441.3250
22.9600,502.0200
22.9700,454.7350
22.9800,462.4050
22.9900,464.0550
23.0000,496.2250
23.0100,405.8900
23.0200,389.9900
23.0300,453.3325
23.0400,451.9875
23.0500,443.7800
23.0600,443.5600
23.0700,420.2450
23.0800,404.8250
23.0900,440.5925
23.1000,465.3650
23.1100,457.9600
23.1200,465.3800
23.1300,453.2600
23.1400,426.1900
23.1500,413.8875
23.1600,495.3600
23.1700,390.0075
23.1800,371.2100
23.1900,405.7975
23.2000,424.9650
23.2100,432.2075
23.2200,403.6250
23.2300,430.8000
23.2400,442.2350
23.2500,483.3325
23.2600,481.7625
23.2700,468.8300
23.2800,459.6125
23.2900,456.6675
23.3000,453.6075
23.3100,430.0000
23.3200,430.0000
23.3300,430.7500
23.3400,439.2725
23.3500,462.9550
23.3600,485.9325
23.3700,473.8050
23.3800,425.1425
23.3900,438.2050
23.4000,423.3325
23.4100,427.5825
23.4200,461.9275
23.4300,451.0475
23.4400,462.7700
23.4500,487.3550
23.4600,496.0625
23.4700,529.4825
23.4800,617.0300
23.4900,652.0000
23.5000,678.9350
23.5100,777.0750
23.5200,946.3650
23.5300,1096.0775
23.5400,1394.6875
23.5500,1636.8450
23.5600,1759.5175
23.5700,2038.4725
23.5800,2313.3325
23.5900,2317.6425
23.6000,2362.7475
23.6100,2394.5375
23.6200,2428.9000
23.6300,2303.2825
23.6400,2155.7575
23.6500,2034.8575
23.6600,1931.6050
23.6700,1761.8500
23.6800,1631.1800
23.6900,1519.7525
23.7000,1319.0700
23.7100,1116.7050
23.7200,996.5225
23.7300,877.3600
23.7400,806.7725
23.7500,766.0050
23.7600,713.6675
23.7700,636.0825
23.7800,588.4475
23.7900,573.8400
23.8000,618.7325
23.8100,600.8250
23.8200,568.2625
23.8300,544.9475
23.8400,531.5975
23.8500,635.2225
23.8600,613.8125
23.8700,571.4900
23.8800,505.8925
23.8900,539.7700
23.9000,537.5775
23.9100,548.8750
23.9200,532.6650
23.9300,521.1350
23.9400,493.2575
23.9500,541.9300
23.9600,569.3650
23.9700,560.2100
23.9800,562.9200
23.9900,556.2575
24.0000,550.0000
24.0100,547.4125
24.0200,512.7550
24.0300,606.3175
24.0400,548.7700
24.0500,584.6525
24.0600,606.1075
24.0700,598.8675
24.0800,636.8475
24.0900,640.8900
24.1000,655.9650
24.1100,644.3725
24.1200,664.6975
24.1300,687.4825
24.1400,639.1750
24.1500,619.9175
24.1600,551.5725
24.1700,519.0275
24.1800,567.2850
24.1900,577.8700
24.2000,531.5375
24.2100,493.0400
24.2200,486.2325
24.2300,473.8325
24.2400,411.8100
24.2500,453.6075
24.2600,460.4025
24.2700,468.9500
24.2800,443.4625
24.2900,445.9100
24.3000,425.6775
24.3100,400.2425
24.3200,406.7850
24.3300,411.0400
24.3400,440.1125
24.3500,444.1075
24.3600,465.9125
24.3700,442.0700
24.3800,403.5375
24.3900,410.2000
24.4000,416.2775
24.4100,404.1875
24.4200,432.8725
24.4300,416.3975
24.4400,407.4500
24.4500,434.9800
24.4600,368.6925
24.4700,317.8525
24.4800,366.1300
24.4900,343.9250
24.5000,370.7125
24.5100,403.2650
24.5200,400.3950
24.5300,419.7475
24.5400,406.9700
24.5500,423.1600
24.5600,413.0000
24.5700,393.1225
24.5800,380.2525
24.5900,396.6200
24.6000,393.6950
24.6100,420.0425
24.6200,423.6525
24.6300,450.0000
24.6400,449.4800
24.6500,400.0950
24.6600,409.6475
24.6700,370.1350
24.6800,386.3775
24.6900,346.5800
24.7000,333.4850
24.7100,360.0825
24.7200,376.8725
24.7300,426.5450
24.7400,389.9325
24.7500,363.3725
24.7600,386.7075
24.7700,430.0000
24.7800,423.3375
24.7900,420.0050
24.8000,386.7400
24.8100,353.4325
24.8200,386.5400
24.8300,403.2575
24.8400,383.4400
24.8500,419.7750
24.8600,416.6900
24.8700,423.2825
24.8800,436.5525
24.8900,377.2250
24.9000,389.8650
24.9100,390.0000
24.9200,386.7050
24.9300,373.5000
24.9400,379.9125
24.9500,389.8600
24.9600,403.1350
24.9700,393.4900
24.9800,386.7750
24.9900,367.0100
25.0000,422.3150
25.0100,469.1250
25.0200,489.6100
25.0300,512.8575
25.0400,487.2300
25.0500,489.9275
25.0600,551.8950
25.0700,546.8225
25.0800,517.3950
25.0900,568.6625
25.1000,576.4950
25.1100,570.1775
25.1200,518.1325
25.1300,549.0575
25.1400,585.6025
25.1500,551.0950
25.1600,520.9200
25.1700,516.7725
25.1800,529.5700
25.1900,604.1375
25.2000,603.4450
25.2100,593.6800
25.2200,599.7650
25.2300,587.1500
25.2400,682.9700
25.2500,696.2900
25.2600,754.3550
25.2700,836.7225
25.2800,852.7975
25.2900,869.3175
25.3000,1096.7950
25.3100,1208.8000
25.3200,1318.5700
25.3300,1584.6175
25.3400,1606.2175
25.3500,1632.1150
25.3600,1585.6575
25.3700,1589.6850
25.3800,1523.3625
25.3900,1526.3400
25.4000,1415.7900
25.4100,1384.6775
25.4200,1307.4300
25.4300,1161.1350
25.4400,1068.0850
25.4500,965.5400
25.4600,862.2875
25.4700,862.9650
25.4800,772.0775
25.4900,678.6325
25.5000,626.2125
25.5100,538.5850
25.5200,498.8350
25.5300,474.7325
25.5400,498.3800
25.5500,518.7700
25.5600,423.1075
25.5700,413.5450
25.5800,441.4150
25.5900,399.6875
25.6000,415.3575
25.6100,435.3400
25.6200,430.4475
25.6300,405.1450
25.6400,397.1250
25.6500,449.3950
25.6600,431.6400
25.6700,420.7100
25.6800,426.1875
25.6900,408.1200
25.7000,378.8700
25.7100,358.1525
25.7200,359.7500
25.7300,363.0800
25.7400,394.1125
25.7500,399.7425
25.7600,387.7100
25.7700,374.3875
25.7800,394.8050
25.7900,411.9900
25.8000,404.1475
25.8100,415.5700
25.8200,398.3275
25.8300,408.8825
25.8400,413.0525
25.8500,422.4800
25.8600,408.1025
25.8700,357.9725
25.8800,359.4150
25.8900,378.2275
25.9000,413.3900
25.9100,398.4700
25.9200,408.7875
25.9300,379.7250
25.9400,385.7400
25.9500,404.8000
25.9600,379.4925
25.9700,364.6000
25.9800,378.4050
25.9900,355.9075
26.0000,380.4125
26.0100,419.4075
26.0200,390.2950
26.0300,422.6775
26.0400,384.6925
26.0500,371.0125
26.0600,361.0225
26.0700,392.8925
26.0800,426.5425
26.0900,427.0150
26.1000,423.6850
26.1100,429.2925
26.1200,409.1625
26.1300,376.9250
26.1400,385.2200
26.1500,413.3875
26.1600,428.5325
26.1700,456.6725
26.1800,439.2725
26.1900,466.2500
26.2000,496.6000
26.2100,556.1050
26.2200,575.1350
26.2300,641.5150
26.2400,638.2200
26.2500,657.2625
26.2600,707.0350
26.2700,704.5225
26.2800,694.5300
26.2900,646.4275
26.3000,660.5025
26.3100,745.2700
26.3200,777.1325
26.3300,817.9725
26.3400,823.3325
26.3500,791.2625
26.3600,830.3625
26.3700,874.5000
26.3800,853.8300
26.3900,791.9000
26.4000,786.2350
26.4100,763.4700
26.4200,739.7200
26.4300,699.0400
26.4400,658.6325
26.4500,673.5550
26.4600,604.5100
26.4700,506.8250
26.4800,487.5725
26.4900,524.0850
26.5000,512.7450
26.5100,498.5075
26.5200,488.0550
26.5300,460.8575
26.5400,428.0175
26.5500,391.8475
26.5600,403.8250
26.5700,392.3825
26.5800,378.5825
26.5900,368.1125
26.6000,352.4225
26.6100,424.0025
26.6200,419.6050
26.6300,413.8250
26.6400,379.2750
26.6500,407.3600
26.6600,413.3325
26.6700,376.5400
26.6800,381.3100
26.6900,408.7575
26.7000,382.2875
26.7100,365.3875
26.7200,414.0375
26.7300,403.6325
26.7400,388.7550
26.7500,420.3725
26.7600,429.4725
26.7700,441.2150
26.7800,437.7325
26.7900,400.2900
26.8000,393.3325
26.8100,410.0900
26.8200,404.9625
26.8300,383.8200
26.8400,405.0625
26.8500,426.6925
26.8600,410.5425
26.8700,381.6750
26.8800,362.7950
26.8900,415.4300
26.9000,401.7475
26.9100,369.0050
26.9200,357.8075
26.9300,342.8625
26.9400,328.9675
26.9500,343.2000
26.9600,346.6675
26.9700,360.4175
26.9800,349.5975
26.9900,404.3050
27.0000,427.6350
27.0100,402.6075
27.0200,396.6675
27.0300,382.9975
27.0400,393.6575
27.0500,410.3100
27.0600,413.3325
27.0700,416.0575
27.0800,422.1075
27.0900,390.7175
27.1000,421.3475
27.1100,438.1375
27.1200,421.0300
27.1300,432.9100
27.1400,404.2125
27.1500,420.9850
27.1600,453.6600
27.1700,438.4275
27.1800,414.4775
27.1900,393.8525
27.2000,381.9350
27.2100,369.2575
27.2200,380.0825
27.2300,410.1375
27.2400,413.9900
27.2500,445.4350
27.2600,445.3150
27.2700,446.0025
27.2800,505.3425
27.2900,501.3500
27.3000,523.2850
27.3100,577.8625
27.3200,582.0300
27.3300,606.5375
27.3400,658.4000
27.3500,762.6925
27.3600,876.6200
27.3700,958.1450
27.3800,1086.8650
27.3900,1293.3875
27.4000,1450.6675
27.4100,1598.4525
27.4200,1740.4425
27.4300,1838.3000
27.4400,1859.2900
27.4500,1804.9475
27.4600,1818.8075
27.4700,1813.5850
27.4800,1765.5700
27.4900,1716.7825
27.5000,1657.1125
27.5100,1502.6400
27.5200,1320.1800
27.5300,1207.1975
27.5400,1082.7700
27.5500,993.6550
27.5600,922.2325
27.5700,816.0400
27.5800,722.7450
27.5900,674.9100
27.6000,638.2725
27.6100,622.2650
27.6200,601.9675
27.6300,596.6675
27.6400,563.2500
27.6500,512.2475
27.6600,471.7825
27.6700,445.3950
27.6800,475.8375
27.6900,455.9800
27.7000,439.0025
27.7100,426.4600
27.7200,423.3325
27.7300,441.1575
27.7400,423.7725
27.7500,442.0775
27.7600,429.6925
27.7700,436.0125
27.7800,467.8625
27.7900,448.8325
27.8000,452.6375
27.8100,456.6675
27.8200,431.4425
27.8300,425.8525
27.8400,393.9475
27.8500,393.3900
27.8600,396.6675
27.8700,419.2475
27.8800,429.1725
27.8900,394.9500
27.9000,405.8400
27.9100,453.3050
27.9200,441.7125
27.9300,413.3900
27.9400,424.0975
27.9500,390.2000
27.9600,384.1200
27.9700,406.5225
27.9800,410.8550
27.9900,417.4300
28.0000,429.8950
28.0100,453.1050
28.0200,452.5950
28.0300,450.0000
28.0400,459.8525
28.0500,448.5700
28.0600,411.3800
28.0700,446.6500
28.0800,463.3325
28.0900,436.3850
28.1000,456.0325
28.1100,461.7775
28.1200,420.9300
28.1300,394.4700
28.1400,414.3650
28.1500,464.7075
28.1600,480.0000
28.1700,504.2850
28.1800,476.9475
28.1900,424.5650
28.2000,426.9425
28.2100,476.8525
28.2200,507.8225
28.2300,530.2200
28.2400,534.2575
28.2500,482.7875
28.2600,451.3125
28.2700,475.4850
28.2800,496.2625
28.2900,516.7725
28.3000,487.4300
28.3100,499.6325
28.3200,512.3875
28.3300,518.1050
28.3400,527.1475
28.3500,515.7200
28.3600,524.2650
28.3700,589.3675
28.3800,651.2850
28.3900,690.3600
28.4000,744.9675
28.4100,794.0650
28.4200,886.9500
28.4300,960.0975
28.4400,1052.0575
28.4500,1182.1700
28.4600,1359.6650
28.4700,1667.8900
28.4800,1916.3900
28.4900,2203.8900
28.5000,2543.3425
28.5100,2789.2325
28.5200,2945.7125
28.5300,3126.5725
28.5400,3289.1475
28.5500,3365.9025
28.5600,3340.4975
28.5700,3177.1075
28.5800,3168.9725
28.5900,3207.2275
28.6000,3174.0125
28.6100,3091.9775
28.6200,2994.1050
28.6300,2820.4275
28.6400,2738.2475
28.6500,2617.3225
28.6600,2511.5425
28.6700,2385.7225
28.6800,2365.2075
28.6900,2308.0025
28.7000,2205.7975
28.7100,2061.4450
28.7200,1932.4550
28.7300,1846.5475
28.7400,1698.1850
28.7500,1612.7275
28.7600,1590.9200
28.7700,1489.1700
28.7800,1395.7750
28.7900,1368.8100
28.8000,1380.2225
28.8100,1438.5700
28.8200,1569.2675
28.8300,1723.5575
28.8400,1901.5025
28.8500,2082.3650
28.8600,2227.4850
28.8700,2276.7225
28.8800,2382.9400
28.8900,2509.3275
28.9000,2542.2025
28.9100,2484.2550
28.9200,2568.0225
28.9300,2630.0075
28.9400,2722.2025
28.9500,2813.2675
28.9600,2858.8300
28.9700,2870.0000
28.9800,2726.2850
28.9900,2569.4175
29.0000,2495.7875
29.0100,2424.9250
29.0200,2255.8500
29.0300,2143.7775
29.0400,2039.9275
29.0500,1891.4400
29.0600,1735.9475
29.0700,1650.5300
29.0800,1572.1775
29.0900,1500.7325
29.1000,1403.7425
29.1100,1332.8675
29.1200,1281.8925
29.1300,1300.2375
29.1400,1348.1850
29.1500,1387.1525
29.1600,1575.1800
29.1700,1855.7650
29.1800,2142.2000
29.1900,2557.9175
29.2000,3074.3200
29.2100,3641.6125
29.2200,4345.8725
29.2300,5241.7475
29.2400,6246.1800
29.2500,7237.8025
29.2600,8235.9850
29.2700,9041.5800
29.2800,9654.3250
29.2900,10047.2525
29.3000,10214.9650
29.3100,10211.7950
29.3200,10035.2525
29.3300,9574.0475
29.3400,9083.0050
29.3500,8610.7875
29.3600,8126.2875
29.3700,7467.6275
29.3800,6700.7000
29.3900,5824.1650
29.4000,5107.3500
29.4100,4443.6150
29.4200,3788.6025
29.4300,3272.3800
29.4400,2819.4100
29.4500,2393.5450
29.4600,2058.8400
29.4700,1812.7450
29.4800,1594.9975
29.4900,1330.7975
29.5000,1155.7800
29.5100,1048.3925
29.5200,950.8775
29.5300,854.7600
29.5400,773.3875
29.5500,748.7250
29.5600,743.8325
29.5700,705.1025
29.5800,662.8325
29.5900,692.9975
29.6000,699.5525
29.6100,631.5300
29.6200,598.7050
29.6300,622.4050
29.6400,671.2475
29.6500,687.2400
29.6600,665.0750
29.6700,624.9675
29.6800,606.6675
29.6900,596.5625
29.7000,559.7300
29.7100,566.2000
29.7200,621.5750
29.7300,598.4275
29.7400,568.6750
29.7500,582.0275
29.7600,598.0075
29.7700,595.3350
29.7800,580.0175
29.7900,559.3750
29.8000,591.8175
29.8100,649.8300
29.8200,620.3525
29.8300,547.0025
29.8400,553.6700
29.8500,560.8425
29.8600,561.8525
29.8700,544.3575
29.8800,522.7275
29.8900,569.1800
29.9000,617.0850
29.9100,616.8575
29.9200,617.8375
29.9300,627.2475
29.9400,622.1850
29.9500,606.9100
29.9600,584.4125
29.9700,618.0875
29.9800,686.9200
29.9900,717.2150
30.0000,731.6275
30.0100,780.6375
30.0200,842.8525
30.0300,934.2100
30.0400,1052.7100
30.0500,1147.5950
30.0600,1247.2625
30.0700,1409.8925
30.0800,1545.0775
30.0900,1638.8325
30.1000,1764.0875
30.1100,1824.7575
30.1200,1903.3750
30.1300,2174.5725
30.1400,2397.9475
30.1500,2615.5650
30.1600,3027.5925
30.1700,3468.5275
30.1800,3670.2350
30.1900,3731.0750
30.2000,3833.4900
30.2100,3920.1075
30.2200,4007.2200
30.2300,4173.0025
30.2400,4293.3125
30.2500,4354.0875
30.2600,4418.8325
30.2700,4495.1750
30.2800,4628.3475
30.2900,4556.3650
30.3000,4373.1225
30.3100,4208.7000
30.3200,3949.5850
30.3300,3763.3925
30.3400,3612.5125
30.3500,3396.0725
30.3600,3162.5750
30.3700,3041.9550
30.3800,2956.5450
30.3900,2865.4950
30.4000,2825.3525
30.4100,2751.1700
30.4200,2763.9000
30.4300,3077.3575
30.4400,3517.2375
30.4500,3870.5600
30.4600,4135.2375
30.4700,4321.5550
30.4800,4415.3350
30.4900,4534.2450
30.5000,4658.1675
30.5100,4686.1275
30.5200,4681.8000
30.5300,4713.8725
30.5400,4732.8250
30.5500,4730.2475
30.5600,4856.7325
30.5700,4947.2625
30.5800,4942.2475
30.5900,5037.2400
30.6000,5156.0000
30.6100,5085.0550
30.6200,4786.1750
30.6300,4396.0675
30.6400,4105.7425
30.6500,3995.6900
30.6600,3858.4400
30.6700,3621.5850
30.6800,3413.5750
30.6900,3182.6825
30.7000,2904.6575
30.7100,2656.1875
30.7200,2384.1500
30.7300,2067.7350
30.7400,1864.4525
30.7500,1705.4475
30.7600,1507.9000
30.7700,1322.9800
30.7800,1152.0300
30.7900,1038.6700
30.8000,986.0875
30.8100,954.5025
30.8200,962.3500
30.8300,971.3175
30.8400,973.7100
30.8500,1008.9125
30.8600,1100.0525
30.8700,1113.7825
30.8800,1073.5525
30.8900,1107.1425
30.9000,1114.7175
30.9100,1108.4775
30.9200,1086.2000
30.9300,1041.4575
30.9400,1001.3575
30.9500,964.8750
30.9600,943.2425
30.9700,886.3125
30.9800,808.1425
30.9900,786.7100
31.0000,758.2250
31.0100,689.9625
31.0200,669.9975
31.0300,661.7025
31.0400,620.0825
31.0500,598.3250
31.0600,555.3025
31.0700,518.2650
31.0800,536.5675
31.0900,566.4375
31.1000,570.2175
31.1100,536.9100
31.1200,485.5700
31.1300,454.9100
31.1400,463.2675
31.1500,482.9825
31.1600,517.9175
31.1700,530.1625
31.1800,484.3650
31.1900,453.0600
31.2000,468.1875
31.2100,449.0975
31.2200,431.3975
31.2300,444.8325
31.2400,454.8225
31.2500,437.5275
31.2600,432.5625
31.2700,462.9325
31.2800,460.5550
31.2900,451.4500
31.3000,451.8900
31.3100,446.6675
31.3200,468.8800
31.3300,488.5825
31.3400,494.4025
31.3500,497.1950
31.3600,499.2750
31.3700,488.1600
31.3800,450.5750
31.3900,438.4325
31.4000,435.1000
31.4100,448.9625
31.4200,476.0275
31.4300,467.9775
31.4400,455.9950
31.4500,477.5325
31.4600,462.1075
31.4700,460.9400
31.4800,493.5775
31.4900,483.8325
31.5000,479.7450
31.5100,467.9700
31.5200,451.5325
31.5300,470.1750
31.5400,490.0000
31.5500,479.3200
31.5600,500.1775
31.5700,555.2050
31.5800,515.6525
31.5900,457.2725
31.6000,507.8150
31.6100,539.7425
31.6200,496.2000
31.6300,440.7625
31.6400,437.3675
31.6500,454.6700
31.6600,457.9625
31.6700,463.5650
31.6800,434.3850
31.6900,438.2225
31.7000,465.5850
31.7100,458.8625
31.7200,448.5150
31.7300,461.8550
31.7400,439.3400
31.7500,417.7525
31.7600,448.3300
31.7700,466.7900
31.7800,448.5350
31.7900,458.3675
31.8000,461.6550
31.8100,433.5500
31.8200,409.3925
31.8300,417.4250
31.8400,426.9550
31.8500,407.1075
31.8600,397.5575
31.8700,391.4425
31.8800,389.0175
31.8900,383.3325
31.9000,386.2000
31.9100,371.3975
31.9200,378.0900
31.9300,428.5550
31.9400,424.3450
31.9500,394.8100
31.9600,397.5125
31.9700,422.3275
31.9800,407.3975
31.9900,390.7675
32.0000,410.0000
32.0100,394.5475
32.0200,383.1475
32.0300,398.0650
32.0400,404.1900
32.0500,390.4800
32.0600,368.9000
32.0700,404.4450
32.0800,422.5375
32.0900,394.7175
32.1000,402.1900
32.1100,401.7300
32.1200,392.7525
32.1300,391.1750
32.1400,370.9975
32.1500,365.6450
32.1600,392.8900
32.1700,380.7750
32.1800,354.2150
32.1900,374.0725
32.2000,394.9025
32.2100,393.6775
32.2200,351.9025
32.2300,337.3050
32.2400,353.5000
32.2500,376.6250
32.2600,380.0575
32.2700,404.0100
32.2800,404.6650
32.2900,379.3600
32.3000,357.3200
32.3100,385.8775
32.3200,397.5000
32.3300,371.2575
32.3400,403.1075
32.3500,414.9150
32.3600,386.6675
32.3700,387.9775
32.3800,388.6925
32.3900,390.5825
32.4000,397.9700
32.4100,403.9000
32.4200,415.1900
32.4300,423.3325
32.4400,410.4125
32.4500,384.8425
32.4600,388.2500
32.4700,425.9300
32.4800,450.2575
32.4900,432.3250
32.5000,427.6600
32.5100,459.1075
32.5200,482.3725
32.5300,473.8050
32.5400,488.8625
32.5500,526.0750
32.5600,557.0300
32.5700,544.1500
32.5800,532.4675
32.5900,533.7825
32.6000,540.4125
32.6100,515.8300
32.6200,508.7925
32.6300,478.8175
32.6400,440.1600
32.6500,414.0900
32.6600,441.4850
32.6700,466.6675
32.6800,446.9925
32.6900,417.0150
32.7000,425.7825
32.7100,422.6700
32.7200,416.0950
32.7300,421.8000
32.7400,397.5525
32.7500,371.2125
32.7600,383.0025
32.7700,386.7325
32.7800,364.5375
32.7900,371.4700
32.8000,362.0250
32.8100,356.3075
32.8200,415.2650
32.8300,421.1900
32.8400,404.0250
32.8500,418.5925
32.8600,410.0000
32.8700,414.7200
32.8800,425.6875
32.8900,430.0000
32.9000,428.8275
32.9100,411.4600
32.9200,379.8325
32.9300,383.8150
32.9400,416.1150
32.9500,427.2450
32.9600,394.0775
32.9700,376.6675
32.9800,390.4875
32.9900,405.1750
33.0000,377.6000
33.0100,363.2350
33.0200,362.3725
33.0300,379.0275
33.0400,388.8650
33.0500,392.3350
33.0600,413.5125
33.0700,432.2050
33.0800,418.7425
33.0900,394.4200
33.1000,405.6900
33.1100,452.3200
33.1200,467.7175
33.1300,431.1025
33.1400,424.4425
33.1500,432.2250
33.1600,427.7900
33.1700,427.7425
33.1800,436.6675
33.1900,454.2250
33.2000,485.6200
33.2100,484.3125
33.2200,500.0000
33.2300,508.6975
33.2400,511.4825
33.2500,474.5900
33.2600,467.6500
33.2700,477.7425
33.2800,463.8875
33.2900,443.9300
33.3000,464.7800
33.3100,443.4675
33.3200,444.1150
33.3300,468.4900
33.3400,501.4900
33.3500,520.6600
33.3600,481.7450
33.3700,464.0250
33.3800,475.8050
33.3900,470.8500
33.4000,468.5225
33.4100,465.1875
33.4200,503.9900
33.4300,475.0475
33.4400,459.7650
33.4500,464.6050
33.4600,464.1125
33.4700,491.7900
33.4800,533.3325
33.4900,517.0100
33.5000,499.3350
33.5100,553.4825
33.5200,569.5800
33.5300,558.3825
33.5400,597.1975
33.5500,655.9800
33.5600,661.7000
33.5700,698.6650
33.5800,736.2375
33.5900,803.3875
33.6000,768.0975
33.6100,737.0325
33.6200,713.2250
33.6300,680.2225
33.6400,695.6850
33.6500,707.0425
33.6600,734.1400
33.6700,703.4425
33.6800,671.1050
33.6900,700.6575
33.7000,716.0375
33.7100,704.4575
33.7200,767.8750
33.7300,841.4600
33.7400,893.4900
33.7500,1069.6200
33.7600,1339.8850
33.7700,1601.6500
33.7800,1881.5275
33.7900,2288.1725
33.8000,2671.4700
33.8100,3165.5050
33.8200,3452.6900
33.8300,3437.4750
33.8400,3333.8750
33.8500,3301.6100
33.8600,3183.9125
33.8700,3012.5175
33.8800,2909.5275
33.8900,2839.3725
33.9000,2728.9475
33.9100,2653.2525
33.9200,2537.1950
33.9300,2299.2025
33.9400,2048.4525
33.9500,1814.7375
33.9600,1565.1975
33.9700,1400.7700
33.9800,1395.0975
33.9900,1287.5075
34.0000,1255.1125
34.0100,1241.3675
34.0200,1210.3500
34.0300,1268.4300
34.0400,1288.2875
34.0500,1336.1400
34.0600,1355.0825
34.0700,1331.2225
34.0800,1243.9125
34.0900,1236.2025
34.1000,1253.8250
34.1100,1206.8425
34.1200,1142.2650
34.1300,1122.5700
34.1400,1138.5425
34.1500,1140.3350
34.1600,1064.8400
34.1700,1055.2400
34.1800,1084.8050
34.1900,1034.9500
34.2000,1016.6425
34.2100,1019.2150
34.2200,1062.5050
34.2300,1106.6075
34.2400,1202.4175
34.2500,1265.7025
34.2600,1316.6300
34.2700,1327.4875
34.2800,1320.9925
34.2900,1276.1900
34.3000,1214.3825
34.3100,1204.5150
34.3200,1263.2350
34.3300,1267.6900
34.3400,1260.4475
34.3500,1275.7075
34.3600,1220.0000
34.3700,1223.1850
34.3800,1233.3325
34.3900,1227.0050
34.4000,1203.5125
34.4100,1194.1200
34.4200,1208.4200
34.4300,1245.1050
34.4400,1243.8925
34.4500,1290.0325
34.4600,1375.2500
34.4700,1292.5625
34.4800,1290.7675
34.4900,1289.5050
34.5000,1253.0025
34.5100,1186.2675
34.5200,1230.0000
34.5300,1234.5350
34.5400,1242.4675
34.5500,1203.9025
34.5600,1147.2800
34.5700,1089.1650
34.5800,1025.8775
34.5900,975.9250
34.6000,965.9525
34.6100,927.4925
34.6200,880.4000
34.6300,861.9625
34.6400,839.8875
34.6500,843.7400
34.6600,765.3775
34.6700,753.9625
34.6800,787.2225
34.6900,673.5600
34.7000,645.0075
34.7100,617.4275
34.7200,585.4575
34.7300,588.3950
34.7400,568.5950
34.7500,566.1350
34.7600,566.1950
34.7700,519.0150
34.7800,489.3075
34.7900,479.7600
34.8000,453.3325
34.8100,459.5025
34.8200,478.5525
34.8300,451.1525
34.8400,418.0225
34.8500,416.5775
34.8600,396.0575
34.8700,423.3525
34.8800,420.6325
34.8900,361.3250
34.9000,387.9575
34.9100,421.3225
34.9200,423.3750
34.9300,406.7225
34.9400,394.6400
34.9500,396.7475
34.9600,385.9250
34.9700,389.5650
34.9800,363.2150
34.9900,379.2300
35.0000,403.4025
35.0100,453.6425
35.0200,428.5675
35.0300,436.0350
35.0400,429.5625
35.0500,415.2100
35.0600,423.9575
35.0700,414.8700
35.0800,376.3175
35.0900,437.6450
35.1000,456.0525
35.1100,456.3875
35.1200,469.3925
35.1300,457.5775
35.1400,419.6850
35.1500,433.3325
35.1600,437.5225
35.1700,457.8575
35.1800,459.7725
35.1900,438.6050
35.2000,411.9575
35.2100,398.2050
35.2200,442.5025
35.2300,454.3100
35.2400,382.3150
35.2500,395.6375
35.2600,413.5525
35.2700,440.3825
35.2800,415.1200
35.2900,433.2050
35.3000,407.3300
35.3100,434.3525
35.3200,381.6175
35.3300,353.3550
35.3400,418.8925
35.3500,418.8475
35.3600,445.5675
35.3700,438.3600
35.3800,430.0000
35.3900,425.6675
35.4000,403.8725
35.4100,409.8875
35.4200,425.5975
35.4300,413.0875
35.4400,375.0775
35.4500,367.7200
35.4600,379.6275
35.4700,411.7675
35.4800,397.6200
35.4900,365.1150
35.5000,357.6950
35.5100,368.9675
35.5200,394.9025
35.5300,376.8100
35.5400,430.3050
35.5500,408.8125
35.5600,389.8325
35.5700,433.6300
35.5800,468.3850
35.5900,431.6275
35.6000,388.7225
35.6100,419.5125
35.6200,417.1525
35.6300,427.2400
35.6400,473.8425
35.6500,498.1000
35.6600,500.9625
35.6700,466.6675
35.6800,467.6075
35.6900,474.7375
35.7000,482.8675
35.7100,480.0000
35.7200,480.4600
35.7300,481.9575
35.7400,485.1850
35.7500,560.4525
35.7600,570.5475
35.7700,624.7400
35.7800,673.9900
35.7900,661.9900
35.8000,696.6675
35.8100,699.7375
35.8200,727.8525
35.8300,788.2425
35.8400,836.4300
35.8500,785.2825
35.8600,766.5550
35.8700,849.8800
35.8800,801.2250
35.8900,787.9250
35.9000,795.8325
35.9100,787.9275
35.9200,768.8025
35.9300,734.6200
35.9400,723.6650
35.9500,740.6925
35.9600,672.5300
35.9700,668.2650
35.9800,666.4900
35.9900,565.8775
36.0000,558.0375
36.0100,544.8950
36.0200,557.4425
36.0300,564.4900
36.0400,572.1850
36.0500,560.2900
36.0600,537.8000
36.0700,556.0575
36.0800,633.3575
36.0900,663.7075
36.1000,683.3875
36.1100,607.3575
36.1200,636.0025
36.1300,601.1675
36.1400,584.0500
36.1500,584.3000
36.1600,537.7275
36.1700,549.8300
36.1800,578.4125
36.1900,585.3625
36.2000,521.1400
36.2100,565.1275
36.2200,602.8725
36.2300,529.5550
36.2400,438.6750
36.2500,458.9925
36.2600,475.0550
36.2700,432.6175
36.2800,455.3675
36.2900,436.5600
36.3000,375.5750
36.3100,401.7500
36.3200,449.6850
36.3300,446.3525
36.3400,444.2650
36.3500,448.4025
36.3600,400.9175
36.3700,405.7525
36.3800,363.9350
36.3900,367.6125
36.4000,342.7400
36.4100,338.4300
36.4200,361.0375
36.4300,406.3775
36.4400,402.4725
36.4500,395.6075
36.4600,418.5900
36.4700,401.0975
36.4800,378.8825
36.4900,406.9025
36.5000,446.6675
36.5100,446.9375
36.5200,448.9300
36.5300,439.8475
36.5400,479.8175
36.5500,514.0650
36.5600,485.6550
36.5700,513.5900
36.5800,513.6300
36.5900,473.6575
36.6000,441.3850
36.6100,499.7550
36.6200,498.1275
36.6300,511.8425
36.6400,449.0450
36.6500,434.5375
36.6600,408.0700
36.6700,428.7525
36.6800,457.8125
36.6900,471.7450
36.7000,450.2250
36.7100,452.8900
36.7200,444.0275
36.7300,407.3200
36.7400,415.3750
36.7500,395.1775
36.7600,376.9100
36.7700,429.7925
36.7800,423.1725
36.7900,372.0325
36.8000,403.3325
36.8100,407.5025
36.8200,468.8225
36.8300,395.8925
36.8400,384.6725
36.8500,406.2875
36.8600,400.7475
36.8700,411.3050
36.8800,375.9400
36.8900,363.1525
36.9000,360.1775
36.9100,364.7325
36.9200,390.5175
36.9300,400.5100
36.9400,410.8400
36.9500,424.8475
36.9600,393.1000
36.9700,451.8875
36.9800,423.1750
36.9900,419.2200
37.0000,405.0250
37.0100,437.8800
37.0200,394.2275
37.0300,414.6525
37.0400,441.3125
37.0500,396.8075
37.0600,400.1400
37.0700,403.6075
37.0800,411.0800
37.0900,436.9325
37.1000,443.2025
37.1100,440.2550
37.1200,446.9175
37.1300,451.9775
37.1400,415.5800
37.1500,388.5625
37.1600,439.6525
37.1700,430.0000
37.1800,430.1125
37.1900,433.2250
37.2000,428.8250
37.2100,395.3200
37.2200,456.6675
37.2300,456.1675
37.2400,441.5600
37.2500,492.3825
37.2600,458.7925
37.2700,417.7525
37.2800,456.5775
37.2900,454.7075
37.3000,507.5850
37.3100,543.5775
37.3200,554.1225
37.3300,587.5075
37.3400,624.9650
37.3500,696.3075
37.3600,680.9750
37.3700,727.5400
37.3800,769.6750
37.3900,757.2150
37.4000,962.2900
37.4100,1087.9425
37.4200,1160.9450
37.4300,1217.3600
37.4400,1262.7550
37.4500,1440.8275
37.4600,1498.5225
37.4700,1630.1775
37.4800,1644.3350
37.4900,1726.0150
37.5000,1951.9300
37.5100,2124.3775
37.5200,2225.2200
37.5300,2417.7250
37.5400,2533.3050
37.5500,2532.4050
37.5600,2845.2425
37.5700,3116.9600
37.5800,3165.0500
37.5900,3471.2100
37.6000,3716.5400
37.6100,3687.0075
37.6200,3782.6625
37.6300,3546.2575
37.6400,3356.2300
37.6500,3056.4875
37.6600,2823.3300
37.6700,2793.3525
37.6800,2846.5975
37.6900,2969.7550
37.7000,2910.1600
37.7100,2876.7800
37.7200,2727.2750
37.7300,2564.1075
37.7400,2583.2250
37.7500,2543.5775
37.7600,2394.3550
37.7700,2244.4575
37.7800,2206.9675
37.7900,2209.9700
37.8000,2219.9050
37.8100,2239.7950
37.8200,2180.6550
37.8300,2255.7775
37.8400,2355.4375
37.8500,2264.5450
37.8600,2266.6200
37.8700,2493.3675
37.8800,2460.5500
37.8900,2492.8100
37.9000,2522.8425
37.9100,2457.8050
37.9200,2289.6850
37.9300,2224.5025
37.9400,2102.3600
37.9500,2067.3275
37.9600,2017.6900
37.9700,1944.8850
37.9800,1845.5175
37.9900,1690.1975
38.0000,1680.1550
38.0100,1527.0775
38.0200,1357.5100
38.0300,1343.5850
38.0400,1229.6925
38.0500,1148.7950
38.0600,1052.6375
38.0700,923.6375
38.0800,894.0975
38.0900,870.6850
38.1000,789.1675
38.1100,747.8950
38.1200,762.8100
38.1300,685.8975
38.1400,663.9875
38.1500,618.2250
38.1600,645.6450
38.1700,682.0600
38.1800,622.2425
38.1900,584.6575
38.2000,676.4450
38.2100,676.7925
38.2200,715.1425
38.2300,790.3575
38.2400,895.7900
38.2500,941.5925
38.2600,1048.8425
38.2700,1155.5725
38.2800,1294.0950
38.2900,1376.5725
38.3000,1507.5300
38.3100,1675.8200
38.3200,1769.2950
38.3300,1840.1450
38.3400,1821.0775
38.3500,1810.4700
38.3600,1803.6500
38.3700,1736.7100
38.3800,1723.8225
38.3900,1621.9525
38.4000,1502.6950
38.4100,1442.8850
38.4200,1487.4225
38.4300,1357.3150
38.4400,1214.2500
38.4500,1194.0475
38.4600,1168.1125
38.4700,1081.6100
38.4800,994.8175
38.4900,898.7700
38.5000,887.0450
38.5100,751.5875
38.5200,730.7775
38.5300,701.7675
38.5400,646.7100
38.5500,612.0075
38.5600,603.7400
38.5700,565.7975
38.5800,538.3275
38.5900,539.7900
38.6000,518.1500
38.6100,482.3550
38.6200,464.4150
38.6300,485.1375
38.6400,483.5550
38.6500,483.3325
38.6600,523.7400
38.6700,489.3950
38.6800,468.0450
38.6900,547.3050
38.7000,457.2550
38.7100,496.4550
38.7200,534.0425
38.7300,493.3700
38.7400,462.1850
38.7500,447.6475
38.7600,415.8050
38.7700,407.1650
38.7800,459.0550
38.7900,469.4925
38.8000,463.8450
38.8100,475.6325
38.8200,476.6675
38.8300,578.0000
38.8400,595.8725
38.8500,602.8000
38.8600,744.2825
38.8700,827.0900
38.8800,906.7675
38.8900,1063.1525
38.9000,1137.7725
38.9100,1326.5225
38.9200,1389.0975
38.9300,1439.0650
38.9400,1327.5625
38.9500,1356.2450
38.9600,1353.9150
38.9700,1377.6550
38.9800,1222.0300
38.9900,1206.6675
39.0000,1233.9675
39.0100,1182.1025
39.0200,1197.8700
39.0300,1260.5400
39.0400,1154.7475
39.0500,1052.6550
39.0600,925.5350
39.0700,877.1150
39.0800,779.8325
39.0900,803.1525
39.1000,746.4300
39.1100,703.8850
39.1200,681.9550
39.1300,652.9525
39.1400,616.9650
39.1500,637.3400
39.1600,628.0050
39.1700,617.6775
39.1800,658.5900
39.1900,648.3725
39.2000,694.5100
39.2100,738.8450
39.2200,820.9650
39.2300,928.4625
39.2400,1005.5925
39.2500,1135.4875
39.2600,1167.8625
39.2700,1223.5500
39.2800,1247.8375
39.2900,1181.6725
39.3000,1197.0825
39.3100,1155.5025
39.3200,1058.1075
39.3300,1043.7050
39.3400,1126.2150
39.3500,1006.5200
39.3600,966.3550
39.3700,1001.7300
39.3800,988.9575
39.3900,874.5925
39.4000,818.7400
39.4100,801.5525
39.4200,761.7425
39.4300,691.9700
39.4400,712.7200
39.4500,684.3650
39.4600,656.5250
39.4700,679.7225
39.4800,683.3325
39.4900,777.0275
39.5000,854.3675
39.5100,877.9525
39.5200,1023.1575
39.5300,1148.4325
39.5400,1428.8100
39.5500,1627.0025
39.5600,1859.7400
39.5700,1997.7050
39.5800,2091.8725
39.5900,2132.4000
39.6000,2104.7150
39.6100,1888.1200
39.6200,1682.6450
39.6300,1575.5150
39.6400,1548.8525
39.6500,1572.7125
39.6600,1625.8300
39.6700,1575.5375
39.6800,1618.6450
39.6900,1687.2625
39.7000,1489.0575
39.7100,1286.6675
39.7200,1182.2600
39.7300,994.4950
39.7400,871.7900
39.7500,856.6675
39.7600,741.8350
39.7700,683.1725
39.7800,642.2675
39.7900,605.1575
39.8000,571.3750
39.8100,492.2975
39.8200,491.4325
39.8300,510.4700
39.8400,467.6700
39.8500,465.7050
39.8600,455.2675
39.8700,439.0950
39.8800,428.1300
39.8900,440.8850
39.9000,431.9675
39.9100,461.2325
39.9200,460.9925
39.9300,434.4825
39.9400,435.6675
39.9500,433.8350
39.9600,424.8475
39.9700,417.6800
39.9800,399.7175
39.9900,399.4900
40.0000,405.6425
40.0100,406.6675
40.0200,364.4200
40.0300,356.6675
40.0400,424.1625
40.0500,456.3375
40.0600,443.1500
40.0700,386.6850
40.0800,368.2550
40.0900,383.4775
40.1000,381.0675
40.1100,424.7650
40.1200,430.5375
40.1300,418.8250
40.1400,399.9175
40.1500,382.7175
40.1600,430.1750
40.1700,398.2175
40.1800,348.2500
40.1900,384.5025
40.2000,396.1125
40.2100,363.3400
40.2200,406.6200
40.2300,461.0375
40.2400,431.2050
40.2500,431.6400
40.2600,422.2650
40.2700,397.8800
40.2800,404.3850
40.2900,384.5800
40.3000,382.7600
40.3100,410.9000
40.3200,427.6850
40.3300,441.0100
40.3400,418.5775
40.3500,440.8200
40.3600,474.1325
40.3700,444.3225
40.3800,447.6375
40.3900,463.7025
40.4000,480.3575
40.4100,477.8600
40.4200,473.9325
40.4300,456.9400
40.4400,475.1750
40.4500,463.6300
40.4600,470.9050
40.4700,478.7825
40.4800,469.1125
40.4900,472.1075
40.5000,522.2575
40.5100,517.0375
40.5200,535.0450
40.5300,502.0325
40.5400,441.8450
40.5500,489.5750
40.5600,492.5100
40.5700,498.1125
40.5800,548.6350
40.5900,560.0000
40.6000,549.2075
40.6100,624.8475
40.6200,686.4350
40.6300,782.8050
40.6400,881.3375
40.6500,951.0675
40.6600,1113.7375
40.6700,1278.8225
40.6800,1508.4525
40.6900,1787.1300
40.7000,2097.7225
40.7100,2376.7400
40.7200,2577.0575
40.7300,2704.1750
40.7400,2705.3075
40.7500,2651.9800
40.7600,2538.7000
40.7700,2460.0575
40.7800,2372.1350
40.7900,2353.3325
40.8000,2329.4125
40.8100,2110.8675
40.8200,2133.6275
40.8300,2049.9100
40.8400,1954.4375
40.8500,1862.5250
40.8600,1713.6850
40.8700,1521.3650
40.8800,1408.6675
40.8900,1334.5600
40.9000,1203.9300
40.9100,1052.0775
40.9200,948.8825
40.9300,824.7200
40.9400,770.3650
40.9500,731.7975
40.9600,657.6800
40.9700,598.0150
40.9800,599.7775
40.9900,527.3475
41.0000,483.1025
41.0100,481.9000
41.0200,491.1750
41.0300,469.8225
41.0400,426.7875
41.0500,463.6175
41.0600,453.2100
41.0700,428.4350
41.0800,438.9475
41.0900,453.7350
41.1000,448.8700
41.1100,425.8925
41.1200,422.5950
41.1300,407.7775
41.1400,431.8325
41.1500,452.9450
41.1600,423.0375
41.1700,400.4100
41.1800,383.7525
41.1900,410.9725
41.2000,427.7375
41.2100,419.6925
41.2200,403.7900
41.2300,387.1350
41.2400,380.7625
41.2500,403.1250
41.2600,412.5675
41.2700,397.9400
41.2800,370.2625
41.2900,376.1425
41.3000,392.7975
41.3100,391.5500
41.3200,395.1125
41.3300,404.3275
41.3400,401.5625
41.3500,443.3500
41.3600,451.5700
41.3700,437.2700
41.3800,440.9650
41.3900,445.8750
41.4000,451.7475
41.4100,458.4100
41.4200,477.7550
41.4300,496.0075
41.4400,494.9350
41.4500,480.6800
41.4600,431.1475
41.4700,441.9350
41.4800,465.1500
41.4900,472.5225
41.5000,496.0250
41.5100,493.2550
41.5200,520.2075
41.5300,509.8750
41.5400,518.4150
41.5500,490.6825
41.5600,487.5300
41.5700,515.0775
41.5800,463.1900
41.5900,395.7575
41.6000,410.0250
41.6100,437.5025
41.6200,438.3375
41.6300,451.6450
41.6400,429.2275
41.6500,442.4350
41.6600,482.3800
41.6700,475.9100
41.6800,477.4600
41.6900,467.5750
41.7000,433.5350
41.7100,423.3325
41.7200,450.6075
41.7300,450.0900
41.7400,466.4725
41.7500,473.3325
41.7600,451.0850
41.7700,450.7425
41.7800,453.3325
41.7900,455.8000
41.8000,444.3450
41.8100,447.3875
41.8200,477.0675
41.8300,553.0550
41.8400,539.8125
41.8500,583.1325
41.8600,672.0225
41.8700,811.8775
41.8800,975.8050
41.8900,1039.5800
41.9000,1205.6375
41.9100,1409.9650
41.9200,1619.6200
41.9300,1801.1125
41.9400,1934.4450
41.9500,1971.5400
41.9600,1890.5575
41.9700,1684.8450
41.9800,1498.4575
41.9900,1331.8825
42.0000,1279.3850
42.0100,1347.0000
42.0200,1346.6750
42.0300,1343.9325
42.0400,1366.0250
42.0500,1356.4075
42.0600,1265.4375
42.0700,1182.6350
42.0800,1119.9100
42.0900,946.6475
42.1000,807.1800
42.1100,779.0725
42.1200,724.6850
42.1300,667.2850
42.1400,638.9250
42.1500,590.1425
42.1600,542.1625
42.1700,525.2075
42.1800,537.6975
42.1900,497.8825
42.2000,460.8775
42.2100,460.5000
42.2200,463.3325
42.2300,494.3375
42.2400,499.5175
42.2500,465.7100
42.2600,429.5400
42.2700,429.5100
42.2800,457.0925
42.2900,530.7650
42.3000,613.6000
42.3100,620.0750
42.3200,625.1750
42.3300,613.4325
42.3400,604.3025
42.3500,589.1550
42.3600,637.6450
42.3700,667.0775
42.3800,665.2850
42.3900,660.9775
42.4000,652.9375
42.4100,638.2375
42.4200,661.5400
42.4300,652.1950
42.4400,603.4350
42.4500,598.3925
42.4600,638.4825
42.4700,693.1400
42.4800,707.6600
42.4900,746.4125
42.5000,765.6700
42.5100,773.6700
42.5200,732.3475
42.5300,769.2725
42.5400,797.9925
42.5500,797.6725
42.5600,808.2950
42.5700,817.9800
42.5800,773.5625
42.5900,720.8525
42.6000,674.2100
42.6100,648.4175
42.6200,638.7025
42.6300,648.2325
42.6400,632.5325
42.6500,644.1175
42.6600,660.2575
42.6700,649.4975
42.6800,617.9875
42.6900,574.4325
42.7000,562.3000
42.7100,524.2525
42.7200,502.0725
42.7300,520.6575
42.7400,493.3025
42.7500,428.5375
42.7600,411.2475
42.7700,399.6025
42.7800,375.0400
42.7900,371.2375
42.8000,371.0500
42.8100,358.5925
42.8200,371.5700
42.8300,421.0000
42.8400,385.3725
42.8500,364.5475
42.8600,378.0300
42.8700,369.7075
42.8800,367.8725
42.8900,372.2675
42.9000,391.4575
42.9100,422.6400
42.9200,431.0700
42.9300,425.4800
42.9400,452.6975
42.9500,491.4925
42.9600,487.5475
42.9700,473.2400
42.9800,488.0150
42.9900,480.9150
43.0000,468.8375
43.0100,473.4075
43.0200,485.6475
43.0300,451.8650
43.0400,401.9525
43.0500,406.8250
43.0600,421.1425
43.0700,436.7500
43.0800,405.3450
43.0900,415.6950
43.1000,456.7750
43.1100,436.5575
43.1200,428.9100
43.1300,473.4025
43.1400,453.2950
43.1500,460.0050
43.1600,433.3575
43.1700,400.0175
43.1800,422.1625
43.1900,405.6450
43.2000,396.6425
43.2100,388.9375
43.2200,396.5975
43.2300,425.4250
43.2400,456.5325
43.2500,437.9925
43.2600,447.5775
43.2700,462.2025
43.2800,465.5350
43.2900,482.0600
43.3000,560.3125
43.3100,554.9500
43.3200,526.7525
43.3300,560.6000
43.3400,560.2850
43.3500,563.1325
43.3600,567.8125
43.3700,536.0700
43.3800,502.5300
43.3900,502.0625
43.4000,556.8175
43.4100,565.9025
43.4200,534.8950
43.4300,510.2800
43.4400,518.5500
43.4500,578.7975
43.4600,597.9850
43.4700,560.8025
43.4800,543.3325
43.4900,577.9800
43.5000,618.3050
43.5100,640.8100
43.5200,663.9500
43.5300,707.8750
43.5400,733.1375
43.5500,781.9325
43.5600,860.5150
43.5700,935.1975
43.5800,1033.1200
43.5900,1139.9525
43.6000,1342.0100
43.6100,1536.3275
43.6200,1726.2650
43.6300,1894.2650
43.6400,2010.8900
43.6500,2106.5625
43.6600,2174.2000
43.6700,2225.3700
43.6800,2194.2450
43.6900,2094.1575
43.7000,2036.2850
43.7100,2026.6675
43.7200,2016.0275
43.7300,2027.0075
43.7400,1938.9425
43.7500,1919.4225
43.7600,1855.1525
43.7700,1726.1225
43.7800,1741.4225
43.7900,1725.8750
43.8000,1654.3725
43.8100,1553.9275
43.8200,1389.6425
43.8300,1317.8900
43.8400,1230.2275
43.8500,1095.7325
43.8600,1025.6150
43.8700,985.9875
43.8800,946.8800
43.8900,935.4325
43.9000,903.0875
43.9100,847.6825
43.9200,835.0475
43.9300,842.0950
43.9400,872.6250
43.9500,923.4500
43.9600,918.2650
43.9700,986.8325
43.9800,1063.7825
43.9900,1119.6025
44.0000,1145.4150
44.0100,1167.4775
44.0200,1234.0675
44.0300,1200.1725
44.0400,1191.1450
44.0500,1212.0750
44.0600,1198.8200
44.0700,1177.5700
44.0800,1161.7200
44.0900,1129.7775
44.1000,1109.2000
44.1100,1110.7975
44.1200,1053.4850
44.1300,975.4225
44.1400,966.4850
44.1500,956.0750
44.1600,904.2400
44.1700,828.6025
44.1800,817.2100
44.1900,809.4725
44.2000,767.9500
44.2100,758.1975
44.2200,728.5150
44.2300,735.3175
44.2400,755.3775
44.2500,775.0575
44.2600,796.8750
44.2700,752.3250
44.2800,720.0000
44.2900,697.5900
44.3000,616.1550
44.3100,569.2650
44.3200,599.1900
44.3300,607.8125
44.3400,567.5275
44.3500,577.0875
44.3600,584.5075
44.3700,560.4675
44.3800,570.2350
44.3900,603.5525
44.4000,620.7075
44.4100,621.3150
44.4200,599.8275
44.4300,608.8400
44.4400,597.1475
44.4500,596.1025
44.4600,558.3975
44.4700,528.6775
44.4800,532.0075
44.4900,531.3275
44.5000,485.8875
44.5100,466.6850
44.5200,503.3650
44.5300,501.3275
44.5400,484.6675
44.5500,487.3275
44.5600,464.0525
44.5700,448.6600
44.5800,448.0075
44.5900,438.7000
44.6000,465.1725
44.6100,450.8725
44.6200,438.5900
44.6300,428.7975
44.6400,410.7150
44.6500,404.6850
44.6600,409.2775
44.6700,411.3550
44.6800,402.0875
44.6900,388.7600
44.7000,385.3075
44.7100,392.5875
44.7200,371.0300
44.7300,361.2150
44.7400,392.2650
44.7500,402.1300
44.7600,426.1600
44.7700,460.4200
44.7800,473.9275
44.7900,511.9775
44.8000,562.1500
44.8100,587.8350
44.8200,603.1200
44.8300,641.2950
44.8400,630.1075
44.8500,663.3025
44.8600,674.0600
44.8700,590.9325
44.8800,568.1000
44.8900,538.5500
44.9000,512.5025
44.9100,539.9975
44.9200,568.3225
44.9300,565.0200
44.9400,562.4850
44.9500,605.4350
44.9600,615.9000
44.9700,578.1725
44.9800,538.7250
44.9900,496.2775
45.0000,461.2175
45.0100,409.4775
45.0200,408.9250
45.0300,431.9275
45.0400,439.1100
45.0500,406.7775
45.0600,401.1475
45.0700,391.6925
45.0800,344.5375
45.0900,352.1075
45.1000,382.9175
45.1100,397.6625
45.1200,393.7625
45.1300,373.2800
45.1400,380.5325
45.1500,429.6175
45.1600,477.6575
45.1700,476.1725
45.1800,434.7525
45.1900,403.8125
45.2000,442.3300
45.2100,491.8750
45.2200,450.1400
45.2300,438.4750
45.2400,450.5150
45.2500,414.9000
45.2600,425.5350
45.2700,455.6775
45.2800,456.2175
45.2900,440.1025
45.3000,431.8875
45.3100,461.6400
45.3200,477.6750
45.3300,475.2175
45.3400,484.1975
45.3500,476.8300
45.3600,468.5475
45.3700,498.1825
45.3800,531.2650
45.3900,523.1150
45.4000,489.3800
45.4100,490.1925
45.4200,497.7175
45.4300,508.2975
45.4400,516.2625
45.4500,489.0525
45.4600,483.0650
45.4700,500.7925
45.4800,517.8475
45.4900,513.6300
45.5000,521.9425
45.5100,521.7900
45.5200,508.1425
45.5300,491.8125
45.5400,457.7350
45.5500,467.8125
45.5600,488.1475
45.5700,462.5975
45.5800,480.3350
45.5900,558.0650
45.6000,605.9025
45.6100,615.1800
45.6200,636.9575
45.6300,717.8475
45.6400,793.9450
45.6500,872.2325
45.6600,916.3225
45.6700,957.4425
45.6800,1026.3925
45.6900,1104.7200
45.7000,1075.1450
45.7100,1049.6525
45.7200,1054.6925
45.7300,1076.9250
45.7400,1128.2850
45.7500,1088.5150
45.7600,1034.2050
45.7700,1021.1925
45.7800,1036.7225
45.7900,1073.3750
45.8000,1026.2775
45.8100,953.3200
45.8200,909.3975
45.8300,875.7675
45.8400,861.2200
45.8500,903.8325
45.8600,948.7725
45.8700,924.3500
45.8800,851.1275
45.8900,831.7050
45.9000,826.5025
45.9100,752.4800
45.9200,674.1775
45.9300,623.2200
45.9400,599.7275
45.9500,582.2575
45.9600,595.1950
45.9700,609.4725
45.9800,576.3775
45.9900,542.5575
46.0000,538.7175
46.0100,534.3675
46.0200,508.7475
46.0300,529.1475
46.0400,529.5800
46.0500,480.0875
46.0600,449.2800
46.0700,459.6400
46.0800,478.4500
46.0900,460.3875
46.1000,432.6425
46.1100,439.3575
46.1200,437.3200
46.1300,439.3350
46.1400,440.8975
46.1500,438.8775
46.1600,441.3450
46.1700,427.8025
46.1800,412.9125
46.1900,410.2075
46.2000,432.7925
46.2100,442.9275
46.2200,440.2000
46.2300,438.0375
46.2400,398.0525
46.2500,394.8725
46.2600,416.4775
46.2700,408.0525
46.2800,403.3325
46.2900,415.6375
46.3000,419.6400
46.3100,432.6425
46.3200,460.5250
46.3300,480.5175
46.3400,509.2675
46.3500,516.1650
46.3600,518.9100
46.3700,533.4950
46.3800,559.3750
46.3900,586.9825
46.4000,668.3375
46.4100,761.0700
46.4200,758.9475
46.4300,801.0700
46.4400,868.6975
46.4500,876.6675
46.4600,847.1375
46.4700,825.2075
46.4800,854.2850
46.4900,906.1325
46.5000,935.0650
46.5100,928.0125
46.5200,906.1625
46.5300,895.0625
46.5400,913.9400
46.5500,907.5600
46.5600,879.7675
46.5700,866.4375
46.5800,873.7800
46.5900,874.6175
46.6000,782.4850
46.6100,722.1375
46.6200,719.4900
46.6300,691.3175
46.6400,683.4300
46.6500,667.8100
46.6600,660.2775
46.6700,642.6100
46.6800,604.6925
46.6900,579.6575
46.7000,542.7500
46.7100,526.8275
46.7200,545.2750
46.7300,566.8950
46.7400,528.9650
46.7500,452.6900
46.7600,445.4500
46.7700,483.6675
46.7800,472.8175
46.7900,439.8750
46.8000,441.8175
46.8100,448.3050
46.8200,456.8325
46.8300,436.1900
46.8400,410.0500
46.8500,418.4050
46.8600,446.9900
46.8700,468.3125
46.8800,421.1050
46.8900,381.7250
46.9000,390.0375
46.9100,396.7025
46.9200,413.4625
46.9300,448.5300
46.9400,459.9175
46.9500,423.1275
46.9600,403.3800
46.9700,410.0000
46.9800,418.3800
46.9900,426.6675
47.0000,421.6450
47.0100,406.6300
47.0200,384.9650
47.0300,376.6750
47.0400,386.6775
47.0500,395.0025
47.0600,401.6675
47.0700,419.9950
47.0800,415.0200
47.0900,388.3475
47.1000,386.6500
47.1100,399.9800
47.1200,418.2900
47.1300,468.1650
47.1400,528.2250
47.1500,559.9425
47.1600,574.9675
47.1700,591.5850
47.1800,613.2575
47.1900,603.5000
47.2000,586.6375
47.2100,568.5425
47.2200,548.3150
47.2300,530.2200
47.2400,506.7050
47.2500,524.7350
47.2600,553.2475
47.2700,540.2700
47.2800,501.9275
47.2900,501.3950
47.3000,524.9225
47.3100,510.3225
47.3200,516.2200
47.3300,536.7825
47.3400,518.5450
47.3500,477.2275
47.3600,449.9350
47.3700,435.3675
47.3800,411.7700
47.3900,414.8225
47.4000,400.5100
47.4100,392.9575
47.4200,427.9100
47.4300,441.7850
47.4400,396.0175
47.4500,353.3325
47.4600,358.2050
47.4700,390.9225
47.4800,432.9750
47.4900,412.6300
47.5000,376.6675
47.5100,410.6575
47.5200,425.6375
47.5300,393.6350
47.5400,410.7975
47.5500,477.1350
47.5600,489.2375
47.5700,476.1250
47.5800,504.6125
47.5900,521.4975
47.6000,504.1350
47.6100,496.0825
47.6200,539.0500
47.6300,561.8475
47.6400,564.6925
47.6500,579.7500
47.6600,599.4925
47.6700,642.1750
47.6800,670.1300
47.6900,665.0675
47.7000,679.3250
47.7100,672.6925
47.7200,627.5000
47.7300,577.9350
47.7400,559.4275
47.7500,560.5800
47.7600,533.9200
47.7700,512.0400
47.7800,492.1950
47.7900,489.5425
47.8000,507.9450
47.8100,491.2550
47.8200,472.8575
47.8300,473.8150
47.8400,461.7475
47.8500,450.4950
47.8600,459.0000
47.8700,472.0875
47.8800,449.1000
47.8900,458.6200
47.9000,477.1900
47.9100,458.7750
47.9200,435.8025
47.9300,407.3875
47.9400,396.4850
47.9500,403.1500
47.9600,384.6375
47.9700,374.1525
47.9800,383.7125
47.9900,384.5200
48.0000,404.3225
48.0100,411.9600
48.0200,400.3950
48.0300,374.5300
48.0400,365.8600
48.0500,392.5200
48.0600,409.7950
48.0700,386.7600
48.0800,353.5425
48.0900,382.7850
48.1000,438.7225
48.1100,450.6450
48.1200,427.5325
48.1300,427.3500
48.1400,472.9075
48.1500,517.5550
48.1600,545.5450
48.1700,578.8700
48.1800,592.0075
48.1900,561.8375
48.2000,559.6975
48.2100,566.7500
48.2200,519.8625
48.2300,488.9250
48.2400,461.4350
48.2500,455.4625
48.2600,460.9700
48.2700,479.1000
48.2800,532.1025
48.2900,539.2025
48.3000,545.1675
48.3100,555.8800
48.3200,546.4125
48.3300,582.3175
48.3400,630.7675
48.3500,643.3325
48.3600,658.6950
48.3700,699.6975
48.3800,700.5800
48.3900,646.9975
48.4000,626.1300
48.4100,637.9275
48.4200,660.1725
48.4300,670.8200
48.4400,626.3600
48.4500,572.9125
48.4600,559.7225
48.4700,577.0700
48.4800,559.7725
48.4900,524.5750
48.5000,548.2850
48.5100,550.2025
48.5200,502.3150
48.5300,476.3750
48.5400,478.4800
48.5500,481.2250
48.5600,466.9250
48.5700,412.9800
48.5800,396.3850
48.5900,413.9375
48.6000,391.5150
48.6100,362.7350
48.6200,365.1325
48.6300,371.2325
48.6400,383.8750
48.6500,413.6450
48.6600,382.8225
48.6700,375.6525
48.6800,406.6675
48.6900,402.1450
48.7000,377.0825
48.7100,348.8175
48.7200,355.3725
48.7300,376.0150
48.7400,378.8250
48.7500,377.8400
48.7600,378.8300
48.7700,364.3300
48.7800,365.3300
48.7900,394.9900
48.8000,398.3525
48.8100,380.0000
48.8200,374.0150
48.8300,422.0025
48.8400,510.9250
48.8500,557.5800
48.8600,583.3325
48.8700,574.3800
48.8800,591.6700
48.8900,632.6300
48.9000,654.8975
48.9100,701.6225
48.9200,739.6425
48.9300,776.0550
48.9400,794.3700
48.9500,733.9825
48.9600,691.8475
48.9700,687.0325
48.9800,659.6025
48.9900,643.3425
49.0000,682.2250
49.0100,698.1525
49.0200,667.0525
49.0300,651.1050
49.0400,674.4075
49.0500,658.2475
49.0600,649.8750
49.0700,670.4800
49.0800,662.8375
49.0900,673.4600
49.1000,625.2625
49.1100,600.7750
49.1200,563.8925
49.1300,542.8500
49.1400,582.4500
49.1500,609.6050
49.1600,623.6150
49.1700,627.8575
49.1800,621.0700
49.1900,607.6000
49.2000,599.4575
49.2100,612.6750
49.2200,597.4775
49.2300,591.4625
49.2400,580.1700
49.2500,582.3375
49.2600,621.2775
49.2700,658.9850
49.2800,662.8975
49.2900,667.3025
49.3000,693.5425
49.3100,688.3250
49.3200,726.6400
49.3300,755.2100
49.3400,735.8725
49.3500,698.7900
49.3600,675.6400
49.3700,656.9250
49.3800,644.3550
49.3900,665.9650
49.4000,677.9625
49.4100,652.1675
49.4200,640.5775
49.4300,638.4125
49.4400,640.7050
49.4500,667.6750
49.4600,651.6425
49.4700,652.2400
49.4800,692.8900
49.4900,683.6725
49.5000,643.5775
49.5100,636.4125
49.5200,653.6925
49.5300,607.8475
49.5400,561.3575
49.5500,554.3175
49.5600,551.3675
49.5700,528.4950
49.5800,511.8950
49.5900,487.0150
49.6000,471.0250
49.6100,485.6950
49.6200,472.8275
49.6300,489.1400
49.6400,530.4975
49.6500,507.0575
49.6600,466.1975
49.6700,474.2925
49.6800,482.8600
49.6900,479.5200
49.7000,465.7150
49.7100,455.7150
49.7200,452.8550
49.7300,425.2800
49.7400,386.1850
49.7500,392.8500
49.7600,396.6675
49.7700,405.2100
49.7800,429.4750
49.7900,445.2450
49.8000,423.4300
49.8100,385.2975
49.8200,381.3625
49.8300,383.8900
49.8400,360.9900
49.8500,373.1900
49.8600,388.6600
49.8700,371.9175
49.8800,355.8375
49.8900,345.1600
49.9000,367.9850
49.9100,377.6775
49.9200,379.8950
49.9300,390.5075
49.9400,393.7275
49.9500,382.1600
49.9600,358.9775
49.9700,361.0250
49.9800,353.3325
49.9900,353.3325
50.0000,353.3325
