#Intensity_unit=cps
#Attenuator_coefficient=1.0000
10.0000,885.9100
10.0100,941.8975
10.0200,928.4625
10.0300,866.0075
10.0400,856.9675
10.0500,835.4525
10.0600,796.9800
10.0700,811.5025
10.0800,852.6850
10.0900,790.0950
10.1000,750.0600
10.1100,776.9025
10.1200,828.3600
10.1300,842.3975
10.1400,858.4325
10.1500,869.0575
10.1600,848.8750
10.1700,934.1450
10.1800,940.3175
10.1900,891.7725
10.2000,907.7575
10.2100,910.0000
10.2200,876.8825
10.2300,840.2300
10.2400,872.7650
10.2500,864.6375
10.2600,830.2700
10.2700,829.6700
10.2800,848.0200
10.2900,798.9625
10.3000,817.3400
10.3100,754.0050
10.3200,869.6075
10.3300,865.3500
10.3400,836.3675
10.3500,779.4250
10.3600,806.2650
10.3700,878.8275
10.3800,916.5800
10.3900,890.1000
10.4000,779.0700
10.4100,784.5925
10.4200,837.4350
10.4300,828.4075
10.4400,814.7300
10.4500,804.3850
10.4600,892.7775
10.4700,804.9875
10.4800,772.4800
10.4900,859.3325
10.5000,816.4225
10.5100,795.1225
10.5200,799.2825
10.5300,862.4275
10.5400,872.9725
10.5500,825.8100
10.5600,796.2475
10.5700,834.8825
10.5800,828.1350
10.5900,868.1800
10.6000,811.0900
10.6100,750.0025
10.6200,814.4100
10.6300,873.6575
10.6400,835.6150
10.6500,821.1275
10.6600,849.5650
10.6700,797.1850
10.6800,843.1700
10.6900,841.1425
10.7000,854.7575
10.7100,850.7675
10.7200,838.2050
10.7300,880.8800
10.7400,883.7200
10.7500,824.4325
10.7600,837.2725
10.7700,798.8050
10.7800,808.0400
10.7900,880.5575
10.8000,860.6150
10.8100,827.2950
10.8200,838.0125
10.8300,790.1100
10.8400,859.6025
10.8500,867.0675
10.8600,857.8750
10.8700,891.8200
10.8800,855.6725
10.8900,823.6575
10.9000,802.4475
10.9100,849.7125
10.9200,865.4350
10.9300,834.5275
10.9400,862.1250
10.9500,761.5800
10.9600,793.3500
10.9700,858.3300
10.9800,852.0900
10.9900,838.3450
11.0000,822.1050
11.0100,831.6450
11.0200,865.3425
11.0300,872.9075
11.0400,887.8700
11.0500,878.3775
11.0600,865.0475
11.0700,880.7525
11.0800,845.6075
11.0900,854.5025
11.1000,917.5500
11.1100,851.3225
11.1200,842.8975
11.1300,802.8000
11.1400,819.8175
11.1500,779.9450
11.1600,761.7675
11.1700,788.8975
11.1800,799.1100
11.1900,849.0825
11.2000,923.0400
11.2100,838.1475
11.2200,834.8650
11.2300,822.2575
11.2400,759.5125
11.2500,767.2750
11.2600,841.9425
11.2700,807.3125
11.2800,791.3750
11.2900,853.2200
11.3000,840.3550
11.3100,830.9250
11.3200,838.6075
11.3300,805.5825
11.3400,837.2675
11.3500,823.2750
11.3600,828.5925
11.3700,832.8625
11.3800,827.6100
11.3900,820.9475
11.4000,797.1325
11.4100,761.9050
11.4200,810.9250
11.4300,817.1450
11.4400,790.9900
11.4500,755.3000
11.4600,769.9500
11.4700,818.9125
11.4800,786.8025
11.4900,751.5400
11.5000,814.9375
11.5100,795.3925
11.5200,855.3600
11.5300,812.7000
11.5400,826.0450
11.5500,804.4625
11.5600,836.8700
11.5700,831.9950
11.5800,852.6675
11.5900,887.8175
11.6000,845.2150
11.6100,828.1800
11.6200,843.6325
11.6300,801.4450
11.6400,770.7350
11.6500,769.4900
11.6600,733.3125
11.6700,746.4100
11.6800,817.6600
11.6900,807.4575
11.7000,721.6600
11.7100,681.3325
11.7200,699.1750
11.7300,773.6350
11.7400,865.3650
11.7500,815.3875
11.7600,820.1800
11.7700,814.9150
11.7800,813.3325
11.7900,760.0675
11.8000,750.0000
11.8100,780.8050
11.8200,739.0825
11.8300,718.8100
11.8400,778.1825
11.8500,784.4100
11.8600,719.0875
11.8700,742.9600
11.8800,794.6475
11.8900,820.0675
11.9000,773.1575
11.9100,743.8300
11.9200,753.9225
11.9300,776.1475
11.9400,799.4725
11.9500,833.9150
11.9600,776.0900
11.9700,821.6550
11.9800,772.2650
11.9900,784.9700
12.0000,809.4100
12.0100,771.7625
12.0200,760.5625
12.0300,818.1375
12.0400,813.3975
12.0500,840.4200
12.0600,827.3175
12.0700,826.0950
12.0800,776.9675
12.0900,744.5900
12.1000,756.5475
12.1100,790.3225
12.1200,791.1575
12.1300,732.1750
12.1400,747.5200
12.1500,720.3250
12.1600,751.8200
12.1700,713.2900
12.1800,780.2250
12.1900,804.9000
12.2000,773.7500
12.2100,755.7000
12.2200,808.1350
12.2300,674.8525
12.2400,665.2300
12.2500,727.4475
12.2600,748.2025
12.2700,752.7325
12.2800,736.9475
12.2900,719.6850
12.3000,738.4900
12.3100,827.8550
12.3200,838.4925
12.3300,784.9200
12.3400,762.4450
12.3500,817.1300
12.3600,802.8100
12.3700,747.7525
12.3800,785.5525
12.3900,856.3825
12.4000,848.2975
12.4100,829.7775
12.4200,845.6350
12.4300,882.4975
12.4400,841.2800
12.4500,832.7050
12.4600,881.9975
12.4700,939.2675
12.4800,895.9900
12.4900,875.2375
12.5000,959.6525
12.5100,1085.1400
12.5200,1069.5850
12.5300,1049.2300
12.5400,1022.4450
12.5500,1097.3575
12.5600,1264.5150
12.5700,1291.9400
12.5800,1271.2050
12.5900,1258.6150
12.6000,1312.9875
12.6100,1326.6675
12.6200,1315.9525
12.6300,1364.2000
12.6400,1315.1250
12.6500,1308.0225
12.6600,1328.7075
12.6700,1274.5725
12.6800,1356.0975
12.6900,1460.0350
12.7000,1527.9925
12.7100,1510.6875
12.7200,1516.6500
12.7300,1578.5525
12.7400,1622.5925
12.7500,1603.4175
12.7600,1570.0975
12.7700,1576.6100
12.7800,1503.0450
12.7900,1501.8975
12.8000,1509.3175
12.8100,1510.0000
12.8200,1427.9350
12.8300,1345.8150
12.8400,1303.5600
12.8500,1301.9525
12.8600,1202.9800
12.8700,1210.9775
12.8800,1230.5500
12.8900,1275.5100
12.9000,1233.9775
12.9100,1238.4300
12.9200,1288.0650
12.9300,1323.6675
12.9400,1395.7025
12.9500,1397.5750
12.9600,1393.3325
12.9700,1377.5925
12.9800,1354.9825
12.9900,1266.1575
13.0000,1358.5450
13.0100,1332.4300
13.0200,1261.7475
13.0300,1157.8050
13.0400,1172.5125
13.0500,1138.9575
13.0600,1056.2325
13.0700,992.3450
13.0800,995.6325
13.0900,966.1500
13.1000,917.6325
13.1100,867.6575
13.1200,874.8600
13.1300,830.6500
13.1400,782.9225
13.1500,773.3325
13.1600,830.3675
13.1700,810.3950
13.1800,766.3425
13.1900,754.0800
13.2000,763.6775
13.2100,735.6550
13.2200,695.6750
13.2300,761.5125
13.2400,775.5950
13.2500,763.0225
13.2600,700.7525
13.2700,706.5025
13.2800,746.7775
13.2900,782.3775
13.3000,743.7525
13.3100,699.1875
13.3200,725.9250
13.3300,752.0525
13.3400,787.4200
13.3500,768.4950
13.3600,806.0700
13.3700,822.5575
13.3800,731.3150
13.3900,713.5500
13.4000,714.1150
13.4100,700.5775
13.4200,709.4125
13.4300,703.1425
13.4400,705.0925
13.4500,742.2875
13.4600,771.1325
13.4700,766.5025
13.4800,809.0400
13.4900,775.1175
13.5000,752.3925
13.5100,739.8625
13.5200,721.4700
13.5300,726.7900
13.5400,707.2375
13.5500,712.6375
13.5600,701.5125
13.5700,704.2400
13.5800,764.6825
13.5900,753.0850
13.6000,703.0275
13.6100,757.9675
13.6200,785.0325
13.6300,741.4150
13.6400,724.1550
13.6500,720.8225
13.6600,712.4725
13.6700,702.4775
13.6800,730.0650
13.6900,687.4225
13.7000,682.5100
13.7100,704.1675
13.7200,727.4900
13.7300,718.3525
13.7400,713.3325
13.7500,710.8400
13.7600,692.5575
13.7700,694.1375
13.7800,669.2950
13.7900,674.9200
13.8000,712.3025
13.8100,671.1875
13.8200,685.5925
13.8300,686.7475
13.8400,722.9800
13.8500,709.4275
13.8600,677.7300
13.8700,642.8000
13.8800,702.5225
13.8900,699.5050
13.9000,719.6100
13.9100,705.3425
13.9200,691.7375
13.9300,638.2925
13.9400,647.0675
13.9500,698.4675
13.9600,710.8750
13.9700,700.1775
13.9800,645.1400
13.9900,660.9925
14.0000,680.6825
14.0100,658.8500
14.0200,632.8750
14.0300,646.2250
14.0400,707.0825
14.0500,690.0475
14.0600,679.1075
14.0700,687.3125
14.0800,663.2025
14.0900,687.4125
14.1000,729.1900
14.1100,659.7850
14.1200,688.2975
14.1300,710.0000
14.1400,741.5325
14.1500,716.9775
14.1600,669.4250
14.1700,654.2475
14.1800,684.7725
14.1900,699.0825
14.2000,661.3625
14.2100,605.6450
14.2200,671.9850
14.2300,739.4750
14.2400,734.0725
14.2500,702.6075
14.2600,695.7375
14.2700,687.0575
14.2800,680.9325
14.2900,715.9825
14.3000,703.6325
14.3100,719.6800
14.3200,710.8525
14.3300,700.9425
14.3400,728.6775
14.3500,740.0000
14.3600,708.9775
14.3700,727.6650
14.3800,759.0625
14.3900,716.6675
14.4000,689.5300
14.4100,703.3075
14.4200,726.6275
14.4300,730.9600
14.4400,670.7025
14.4500,677.4775
14.4600,699.4725
14.4700,705.7000
14.4800,713.7600
14.4900,674.1350
14.5000,675.5550
14.5100,683.3325
14.5200,706.9075
14.5300,678.9775
14.5400,691.5775
14.5500,719.7975
14.5600,686.7150
14.5700,651.2125
14.5800,664.4525
14.5900,685.0575
14.6000,699.3725
14.6100,691.6275
14.6200,703.0400
14.6300,698.3125
14.6400,674.6500
14.6500,650.3300
14.6600,645.6650
14.6700,672.2975
14.6800,692.6450
14.6900,668.7500
14.7000,663.6400
14.7100,692.2150
14.7200,701.0125
14.7300,711.5950
14.7400,674.9575
14.7500,649.7200
14.7600,676.7425
14.7700,685.3775
14.7800,690.2625
14.7900,723.3350
14.8000,711.3000
14.8100,690.7825
14.8200,686.6675
14.8300,698.1700
14.8400,747.0075
14.8500,750.5900
14.8600,738.7425
14.8700,711.4425
14.8800,766.4450
14.8900,776.0625
14.9000,771.2425
14.9100,741.3350
14.9200,758.6400
14.9300,823.5350
14.9400,867.1875
14.9500,853.8850
14.9600,847.8850
14.9700,868.1950
14.9800,894.8475
14.9900,894.2500
15.0000,928.5700
15.0100,976.1375
15.0200,1019.4450
15.0300,1019.7550
15.0400,1067.6050
15.0500,1136.2625
15.0600,1172.4700
15.0700,1168.7225
15.0800,1147.5575
15.0900,1140.0000
15.1000,1254.7500
15.1100,1314.4950
15.1200,1343.6200
15.1300,1343.2000
15.1400,1356.8475
15.1500,1382.3500
15.1600,1392.2375
15.1700,1339.6525
15.1800,1337.9175
15.1900,1414.7550
15.2000,1451.1300
15.2100,1486.7700
15.2200,1454.3325
15.2300,1352.1125
15.2400,1342.2375
15.2500,1343.3375
15.2600,1267.8575
15.2700,1277.6875
15.2800,1331.0225
15.2900,1373.2325
15.3000,1371.1825
15.3100,1312.5000
15.3200,1284.4575
15.3300,1294.3650
15.3400,1222.8475
15.3500,1192.1425
15.3600,1126.2500
15.3700,1063.6175
15.3800,988.4925
15.3900,965.4450
15.4000,948.0725
15.4100,897.2300
15.4200,854.7775
15.4300,834.5850
15.4400,764.4450
15.4500,754.0150
15.4600,762.3050
15.4700,757.8200
15.4800,745.7800
15.4900,709.5425
15.5000,702.0275
15.5100,719.6975
15.5200,733.1750
15.5300,680.3050
15.5400,628.3425
15.5500,642.6325
15.5600,682.6100
15.5700,681.5475
15.5800,684.1225
15.5900,666.2825
15.6000,636.1000
15.6100,652.4925
15.6200,632.2625
15.6300,639.1125
15.6400,664.0650
15.6500,627.1125
15.6600,592.6200
15.6700,610.2125
15.6800,648.9950
15.6900,637.6950
15.7000,614.7950
15.7100,646.2550
15.7200,675.1900
15.7300,675.7425
15.7400,643.5575
15.7500,681.9125
15.7600,681.4900
15.7700,678.1800
15.7800,676.0725
15.7900,659.4150
15.8000,649.1025
15.8100,644.5525
15.8200,647.5550
15.8300,633.1275
15.8400,608.5825
15.8500,625.2625
15.8600,667.3425
15.8700,677.0300
15.8800,646.0425
15.8900,638.3900
15.9000,672.6675
15.9100,648.1350
15.9200,627.5150
15.9300,661.3400
15.9400,659.1275
15.9500,627.8975
15.9600,643.7500
15.9700,639.1875
15.9800,664.0950
15.9900,674.2025
16.0000,668.7425
16.0100,674.1475
16.0200,643.5250
16.0300,627.4725
16.0400,603.1225
16.0500,559.8150
16.0600,590.7925
16.0700,640.6150
16.0800,643.0350
16.0900,644.8975
16.1000,639.7225
16.1100,631.2800
16.1200,673.0800
16.1300,691.8025
16.1400,674.3825
16.1500,676.8925
16.1600,671.0725
16.1700,620.4650
16.1800,660.6325
16.1900,689.0725
16.2000,647.4350
16.2100,632.7675
16.2200,640.7300
16.2300,679.8600
16.2400,695.2250
16.2500,671.7725
16.2600,655.9525
16.2700,659.3975
16.2800,659.2950
16.2900,656.6675
16.3000,636.5150
16.3100,627.3600
16.3200,621.9550
16.3300,596.5750
16.3400,579.3200
16.3500,616.7675
16.3600,631.3150
16.3700,633.3375
16.3800,622.0100
16.3900,610.0000
16.4000,617.9800
16.4100,613.3700
16.4200,612.6400
16.4300,612.6900
16.4400,621.9200
16.4500,675.6475
16.4600,672.9625
16.4700,614.3500
16.4800,570.2150
16.4900,590.2675
16.5000,629.1300
16.5100,649.8625
16.5200,605.4375
16.5300,577.8725
16.5400,585.3000
16.5500,596.4875
16.5600,603.3325
16.5700,628.8150
16.5800,662.3300
16.5900,640.0825
16.6000,579.5425
16.6100,625.5525
16.6200,643.5200
16.6300,616.1050
16.6400,591.9300
16.6500,576.6675
16.6600,576.6675
16.6700,621.2750
16.6800,670.7700
16.6900,662.0450
16.7000,652.4675
16.7100,643.1475
16.7200,621.7575
16.7300,597.9175
16.7400,588.5925
16.7500,622.6900
16.7600,623.6150
16.7700,595.1525
16.7800,600.0850
16.7900,623.4025
16.8000,596.9950
16.8100,612.0325
16.8200,605.1650
16.8300,612.8875
16.8400,643.8075
16.8500,650.4700
16.8600,630.5325
16.8700,600.0475
16.8800,622.2300
16.8900,656.1350
16.9000,669.0075
16.9100,661.9950
16.9200,642.0075
16.9300,646.5325
16.9400,669.8500
16.9500,674.3550
16.9600,653.0875
16.9700,604.3350
16.9800,595.4175
16.9900,587.5250
17.0000,586.8375
17.0100,579.4450
17.0200,572.6675
17.0300,583.7300
17.0400,616.4650
17.0500,647.4425
17.0600,658.9075
17.0700,631.7800
17.0800,612.2275
17.0900,609.2600
17.1000,594.0850
17.1100,575.5800
17.1200,588.8125
17.1300,615.8850
17.1400,617.8100
17.1500,598.6200
17.1600,592.1775
17.1700,618.6875
17.1800,640.3325
17.1900,630.5175
17.2000,605.3700
17.2100,628.0375
17.2200,645.7200
17.2300,622.0875
17.2400,626.3825
17.2500,605.4575
17.2600,571.2200
17.2700,564.8525
17.2800,592.3200
17.2900,578.6650
17.3000,548.4750
17.3100,560.8325
17.3200,591.6375
17.3300,588.3875
17.3400,580.7925
17.3500,586.4075
17.3600,601.2800
17.3700,625.6300
17.3800,613.6400
17.3900,585.9375
17.4000,607.0300
17.4100,620.8450
17.4200,585.0550
17.4300,575.7900
17.4400,579.5575
17.4500,591.0875
17.4600,581.8425
17.4700,552.9150
17.4800,543.1300
17.4900,543.5325
17.5000,562.5475
17.5100,580.1925
17.5200,578.0525
17.5300,597.9475
17.5400,627.0250
17.5500,645.6100
17.5600,626.8875
17.5700,605.2475
17.5800,608.2525
17.5900,594.4500
17.6000,586.8200
17.6100,595.2225
17.6200,591.3050
17.6300,616.3300
17.6400,637.9950
17.6500,624.8025
17.6600,616.5400
17.6700,635.7975
17.6800,651.4900
17.6900,636.3250
17.7000,588.7950
17.7100,556.7725
17.7200,568.5850
17.7300,578.3825
17.7400,578.2875
17.7500,576.6675
17.7600,552.7475
17.7700,538.5325
17.7800,558.5950
17.7900,576.8075
17.8000,562.9375
17.8100,550.1225
17.8200,585.4875
17.8300,608.2525
17.8400,601.6425
17.8500,571.2900
17.8600,555.1400
17.8700,595.3025
17.8800,613.2400
17.8900,608.3725
17.9000,620.0450
17.9100,614.9375
17.9200,586.5975
17.9300,571.6725
17.9400,576.6725
17.9500,575.0000
17.9600,560.0125
17.9700,546.6750
17.9800,561.5975
17.9900,596.5825
18.0000,590.1500
18.0100,565.0125
18.0200,588.1075
18.0300,616.6325
18.0400,583.7625
18.0500,561.4725
18.0600,598.0225
18.0700,618.3600
18.0800,597.0050
18.0900,591.3925
18.1000,614.8375
18.1100,631.4925
18.1200,622.0750
18.1300,582.1775
18.1400,582.7525
18.1500,609.9125
18.1600,621.4375
18.1700,636.4750
18.1800,623.9375
18.1900,603.3325
18.2000,608.1700
18.2100,606.8950
18.2200,585.5325
18.2300,560.3675
18.2400,594.8850
18.2500,630.5275
18.2600,586.2950
18.2700,591.6450
18.2800,614.2050
18.2900,593.3325
18.3000,601.2825
18.3100,597.3000
18.3200,554.8000
18.3300,540.7450
18.3400,585.2925
18.3500,603.8625
18.3600,585.4525
18.3700,576.6675
18.3800,615.9625
18.3900,625.4675
18.4000,577.2625
18.4100,588.5775
18.4200,630.5250
18.4300,667.1675
18.4400,667.9650
18.4500,665.3400
18.4600,703.7600
18.4700,732.6425
18.4800,740.2350
18.4900,762.9700
18.5000,804.1475
18.5100,813.5800
18.5200,857.7550
18.5300,879.4925
18.5400,866.1125
18.5500,888.9975
18.5600,933.6025
18.5700,985.9625
18.5800,944.3200
18.5900,919.1475
18.6000,934.5675
18.6100,981.0475
18.6200,1026.9650
18.6300,1035.4600
18.6400,1059.0800
18.6500,1089.6475
18.6600,1122.3875
18.6700,1130.3200
18.6800,1131.1800
18.6900,1108.1250
18.7000,1052.3350
18.7100,1029.6625
18.7200,980.9925
18.7300,907.7075
18.7400,880.2675
18.7500,851.0675
18.7600,796.8950
18.7700,718.1025
18.7800,654.0650
18.7900,625.1700
18.8000,628.1825
18.8100,610.3825
18.8200,612.5575
18.8300,596.4725
18.8400,557.8575
18.8500,561.3275
18.8600,584.3900
18.8700,601.6925
18.8800,604.9925
18.8900,594.3700
18.9000,605.8175
18.9100,611.8800
18.9200,594.0500
18.9300,563.2000
18.9400,560.1175
18.9500,581.9925
18.9600,600.5375
18.9700,585.5425
18.9800,549.0250
18.9900,553.3725
19.0000,572.3925
19.0100,587.1475
19.0200,580.9675
19.0300,574.2500
19.0400,590.4875
19.0500,582.4050
19.0600,562.4875
19.0700,541.9175
19.0800,562.6150
19.0900,563.7000
19.1000,528.9700
19.1100,570.4250
19.1200,608.2400
19.1300,579.8425
19.1400,539.8700
19.1500,526.4475
19.1600,533.0250
19.1700,520.5475
19.1800,509.7150
19.1900,518.0475
19.2000,526.7025
19.2100,508.8675
19.2200,516.6675
19.2300,523.5625
19.2400,542.9700
19.2500,573.1600
19.2600,571.9700
19.2700,525.7100
19.2800,516.8375
19.2900,544.4125
19.3000,590.4425
19.3100,610.4775
19.3200,577.6525
19.3300,550.0000
19.3400,567.5950
19.3500,587.9275
19.3600,557.0675
19.3700,528.7200
19.3800,571.6175
19.3900,630.0425
19.4000,615.8875
19.4100,567.9650
19.4200,547.3300
19.4300,535.3375
19.4400,533.9775
19.4500,540.7025
19.4600,534.6200
19.4700,555.9300
19.4800,568.6800
19.4900,558.7550
19.5000,553.2500
19.5100,585.6725
19.5200,620.0000
19.5300,608.2150
19.5400,576.9300
19.5500,555.3625
19.5600,552.0300
19.5700,556.5000
19.5800,588.7300
19.5900,609.0825
19.6000,549.1675
19.6100,504.1975
19.6200,530.5325
19.6300,545.6700
19.6400,535.6075
19.6500,517.1700
19.6600,561.5125
19.6700,568.5100
19.6800,552.5500
19.6900,561.7550
19.7000,566.1900
19.7100,552.3950
19.7200,536.2050
19.7300,528.7375
19.7400,534.2275
19.7500,547.9250
19.7600,531.1650
19.7700,507.5200
19.7800,513.7450
19.7900,523.3100
19.8000,554.1750
19.8100,540.0500
19.8200,535.7475
19.8300,588.8850
19.8400,630.9650
19.8500,581.6075
19.8600,540.7250
19.8700,560.7125
19.8800,575.7875
19.8900,573.8750
19.9000,563.3325
19.9100,576.7575
19.9200,618.2700
19.9300,653.6475
19.9400,651.5075
19.9500,653.6200
19.9600,679.7075
19.9700,711.9300
19.9800,786.0200
19.9900,807.4800
20.0000,837.4575
20.0100,888.9775
20.0200,938.3075
20.0300,953.1325
20.0400,969.7900
20.0500,908.0825
20.0600,949.8425
20.0700,1015.9125
20.0800,1000.7050
20.0900,973.3550
20.1000,1046.4375
20.1100,1121.5450
20.1200,1124.9600
20.1300,1102.1650
20.1400,1118.6550
20.1500,1189.4025
20.1600,1267.1175
20.1700,1283.1900
20.1800,1270.8850
20.1900,1263.4625
20.2000,1260.7875
20.2100,1215.7525
20.2200,1146.1300
20.2300,1088.1550
20.2400,1021.7275
20.2500,971.8500
20.2600,922.8625
20.2700,866.3100
20.2800,829.9350
20.2900,784.9100
20.3000,706.6175
20.3100,686.4950
20.3200,638.6625
20.3300,601.1500
20.3400,623.4175
20.3500,645.5375
20.3600,640.0075
20.3700,645.5550
20.3800,641.1150
20.3900,626.7100
20.4000,597.8350
20.4100,591.0150
20.4200,622.1250
20.4300,631.2275
20.4400,596.9200
20.4500,560.0575
20.4600,548.9750
20.4700,553.0450
20.4800,556.1375
20.4900,510.9950
20.5000,549.1550
20.5100,618.6200
20.5200,620.5425
20.5300,582.3750
20.5400,577.6150
20.5500,578.1250
20.5600,554.6725
20.5700,548.6475
20.5800,570.6050
20.5900,598.6250
20.6000,592.0525
20.6100,541.7475
20.6200,501.9525
20.6300,504.6025
20.6400,560.1250
20.6500,521.8850
20.6600,543.7450
20.6700,560.4325
20.6800,557.0300
20.6900,571.7275
20.7000,548.1750
20.7100,533.5800
20.7200,536.9350
20.7300,588.6825
20.7400,656.4000
20.7500,654.1575
20.7600,607.9050
20.7700,557.1025
20.7800,598.6400
20.7900,656.6675
20.8000,650.6225
20.8100,638.6775
20.8200,657.3700
20.8300,689.0000
20.8400,698.6400
20.8500,730.6475
20.8600,777.7300
20.8700,858.7425
20.8800,851.8550
20.8900,891.8275
20.9000,898.3700
20.9100,837.8400
20.9200,827.4275
20.9300,866.9950
20.9400,900.9725
20.9500,923.7250
20.9600,985.9250
20.9700,1000.2425
20.9800,967.7100
20.9900,993.3950
21.0000,1000.4125
21.0100,975.7100
21.0200,982.8725
21.0300,996.2000
21.0400,955.7650
21.0500,912.4275
21.0600,904.6625
21.0700,915.4400
21.0800,869.0600
21.0900,865.7300
21.1000,858.6625
21.1100,837.3475
21.1200,787.3075
21.1300,699.6050
21.1400,661.4600
21.1500,700.9225
21.1600,703.3325
21.1700,695.9950
21.1800,675.7525
21.1900,673.3325
21.2000,676.0625
21.2100,680.6100
21.2200,668.8075
21.2300,669.3025
21.2400,715.0350
21.2500,746.6675
21.2600,769.0475
21.2700,831.7850
21.2800,860.7050
21.2900,939.0975
21.3000,975.9900
21.3100,1031.8950
21.3200,1186.0375
21.3300,1259.3150
21.3400,1337.8475
21.3500,1456.4325
21.3600,1622.7850
21.3700,1726.1850
21.3800,1848.9575
21.3900,2010.9325
21.4000,2191.9575
21.4100,2337.9650
21.4200,2508.6025
21.4300,2667.5500
21.4400,2832.8275
21.4500,3042.4825
21.4600,3218.1200
21.4700,3390.6100
21.4800,3540.0000
21.4900,3579.4125
21.5000,3737.6350
21.5100,3936.6950
21.5200,4200.7450
21.5300,4316.5925
21.5400,4387.2375
21.5500,4495.6525
21.5600,4560.5800
21.5700,4633.8025
21.5800,4739.1150
21.5900,4837.4450
21.6000,4700.1550
21.6100,4578.5775
21.6200,4484.7875
21.6300,4214.5275
21.6400,4024.7725
21.6500,3898.3650
21.6600,3599.8200
21.6700,3436.8250
21.6800,3410.0450
21.6900,3321.9475
21.7000,3160.4450
21.7100,2968.6350
21.7200,2851.8150
21.7300,2789.3075
21.7400,2708.3825
21.7500,2579.3975
21.7600,2471.5975
21.7700,2242.8200
21.7800,2105.0625
21.7900,1868.7325
21.8000,1712.4800
21.8100,1630.5550
21.8200,1507.1700
21.8300,1324.3550
21.8400,1211.1050
21.8500,1120.3350
21.8600,1094.3175
21.8700,1029.5800
21.8800,988.8825
21.8900,977.0300
21.9000,976.0000
21.9100,928.8700
21.9200,941.7900
21.9300,951.9775
21.9400,926.2400
21.9500,941.7375
21.9600,973.7150
21.9700,1002.4725
21.9800,935.9850
21.9900,972.1425
22.0000,1012.0350
22.0100,1127.8725
22.0200,1108.6900
22.0300,1063.8500
22.0400,1059.6500
22.0500,1090.3275
22.0600,1115.9700
22.0700,1125.8325
22.0800,1195.4725
22.0900,1266.2125
22.1000,1225.6975
22.1100,1292.4950
22.1200,1368.0300
22.1300,1379.4475
22.1400,1403.3325
22.1500,1385.8025
22.1600,1301.2150
22.1700,1219.9200
22.1800,1138.0000
22.1900,1126.6775
22.2000,1086.2000
22.2100,962.1625
22.2200,896.1100
22.2300,871.9000
22.2400,882.2550
22.2500,841.2100
22.2600,867.1125
22.2700,904.3975
22.2800,953.3500
22.2900,1022.6950
22.3000,1049.2850
22.3100,1206.3075
22.3200,1351.0875
22.3300,1387.6150
22.3400,1495.2875
22.3500,1655.7975
22.3600,1775.0875
22.3700,1878.0475
22.3800,1936.1425
22.3900,2045.2625
22.4000,2105.9550
22.4100,2217.6275
22.4200,2269.0925
22.4300,2283.0200
22.4400,2297.2675
22.4500,2330.5400
22.4600,2495.0450
22.4700,2614.1575
22.4800,2656.9825
22.4900,2794.9250
22.5000,2937.8050
22.5100,2981.8300
22.5200,2933.4550
22.5300,2858.8950
22.5400,2745.1000
22.5500,2788.0225
22.5600,2550.5850
22.5700,2415.1675
22.5800,2190.1300
22.5900,2035.5375
22.6000,1787.9025
22.6100,1532.6250
22.6200,1366.1050
22.6300,1265.1300
22.6400,1082.9850
22.6500,948.5325
22.6600,858.6000
22.6700,769.2125
22.6800,681.5300
22.6900,608.7150
22.7000,635.5950
22.7100,622.5375
22.7200,576.4375
22.7300,551.0850
22.7400,612.1025
22.7500,611.3075
22.7600,549.2675
22.7700,567.9925
22.7800,589.2125
22.7900,556.4125
22.8000,503.5700
22.8100,524.3475
22.8200,529.4950
22.8300,532.1950
22.8400,563.8325
22.8500,567.1650
22.8600,566.0400
22.8700,539.3950
22.8800,516.1775
22.8900,501.6400
22.9000,432.8475
22.9100,438.1950
22.9200,488.1050
22.9300,498.5750
22.9400,513.7950
22.9500,538.0825
22.9600,545.2575
22.9700,527.3300
22.9800,474.1775
22.9900,494.9200
23.0000,464.2525
23.0100,470.9125
23.0200,473.0350
23.0300,450.9025
23.0400,458.4625
23.0500,470.4475
23.0600,472.0025
23.0700,462.4500
23.0800,456.2275
23.0900,452.0250
23.1000,442.0325
23.1100,437.2125
23.1200,465.0475
23.1300,469.4250
23.1400,425.5050
23.1500,464.1750
23.1600,466.2350
23.1700,440.4150
23.1800,452.0100
23.1900,513.3325
23.2000,514.1500
23.2100,514.3225
23.2200,472.9300
23.2300,467.1975
23.2400,447.4625
23.2500,450.1725
23.2600,429.8075
23.2700,452.1625
23.2800,447.9825
23.2900,483.7175
23.3000,483.6075
23.3100,463.4175
23.3200,488.4900
23.3300,473.2950
23.3400,448.5275
23.3500,462.2250
23.3600,459.2050
23.3700,507.3950
23.3800,503.9250
23.3900,425.5900
23.4000,423.0875
23.4100,477.7300
23.4200,485.6125
23.4300,472.4800
23.4400,442.9025
23.4500,493.9150
23.4600,481.2600
23.4700,578.6450
23.4800,563.3050
23.4900,535.6675
23.5000,557.6600
23.5100,563.0550
23.5200,531.9550
23.5300,556.4650
23.5400,620.8350
23.5500,666.0425
23.5600,729.3275
23.5700,794.4900
23.5800,881.7925
23.5900,1006.8225
23.6000,1113.3800
23.6100,1190.5900
23.6200,1297.2675
23.6300,1303.3325
23.6400,1303.9225
23.6500,1321.9825
23.6600,1455.3575
23.6700,1558.7250
23.6800,1683.5375
23.6900,1651.6925
23.7000,1683.1275
23.7100,1832.7550
23.7200,1895.6125
23.7300,1858.3450
23.7400,2003.7175
23.7500,2166.3925
23.7600,2239.7350
23.7700,2234.5775
23.7800,2206.6375
23.7900,2166.9225
23.8000,2160.3675
23.8100,2032.5450
23.8200,1889.5725
23.8300,1753.3675
23.8400,1664.4075
23.8500,1582.2700
23.8600,1433.5750
23.8700,1335.4100
23.8800,1140.3075
23.8900,1088.4925
23.9000,926.2800
23.9100,828.4250
23.9200,807.3350
23.9300,812.4900
23.9400,746.8175
23.9500,650.1150
23.9600,605.2400
23.9700,631.4500
23.9800,602.0925
23.9900,584.1500
24.0000,596.0625
24.0100,588.2575
24.0200,613.5300
24.0300,618.6050
24.0400,650.0000
24.0500,650.3775
24.0600,653.5050
24.0700,602.9350
24.0800,654.2375
24.0900,666.7925
24.1000,613.3375
24.1100,672.4675
24.1200,656.4975
24.1300,650.1450
24.1400,589.3400
24.1500,577.6425
24.1600,596.9875
24.1700,600.9725
24.1800,553.1775
24.1900,548.9350
24.2000,526.5175
24.2100,523.7750
24.2200,537.9525
24.2300,639.5750
24.2400,629.1650
24.2500,609.8625
24.2600,608.0050
24.2700,638.2925
24.2800,596.2800
24.2900,586.6675
24.3000,587.6550
24.3100,612.9700
24.3200,602.3875
24.3300,576.4350
24.3400,569.5475
24.3500,555.4525
24.3600,519.6775
24.3700,508.8425
24.3800,473.5375
24.3900,480.7000
24.4000,501.7750
24.4100,450.2850
24.4200,459.3550
24.4300,437.2050
24.4400,456.0575
24.4500,432.0675
24.4600,384.3150
24.4700,424.6000
24.4800,475.9025
24.4900,443.7775
24.5000,462.4075
24.5100,419.5200
24.5200,396.4025
24.5300,384.4750
24.5400,443.6375
24.5500,459.3025
24.5600,419.7225
24.5700,403.0150
24.5800,383.1325
24.5900,370.5725
24.6000,410.0900
24.6100,416.7100
24.6200,419.4825
24.6300,377.1125
24.6400,417.0475
24.6500,453.1725
24.6600,436.9900
24.6700,473.0650
24.6800,440.2175
24.6900,469.7425
24.7000,430.1500
24.7100,456.6025
24.7200,443.2925
24.7300,433.2550
24.7400,409.9575
24.7500,393.4825
24.7600,479.9875
24.7700,466.6600
24.7800,423.3600
24.7900,390.0475
24.8000,393.3250
24.8100,403.3025
24.8200,413.2950
24.8300,373.5150
24.8400,406.4875
24.8500,416.6050
24.8600,413.3575
24.8700,423.2550
24.8800,423.3325
24.8900,393.6125
24.9000,423.0300
24.9100,367.2825
24.9200,409.4950
24.9300,419.8750
24.9400,400.2650
24.9500,413.1450
24.9600,370.6425
24.9700,353.5925
24.9800,458.2500
24.9900,463.2750
25.0000,388.0450
25.0100,386.6675
25.0200,442.2250
25.0300,472.7225
25.0400,470.0700
25.0500,499.3425
25.0600,428.3325
25.0700,433.1775
25.0800,456.1000
25.0900,485.9150
25.1000,460.6900
25.1100,482.7100
25.1200,515.7525
25.1300,493.9925
25.1400,509.5150
25.1500,506.7650
25.1600,558.3675
25.1700,518.0275
25.1800,523.1175
25.1900,555.5675
25.2000,569.5500
25.2100,544.2550
25.2200,559.4100
25.2300,566.4250
25.2400,611.6075
25.2500,635.7850
25.2600,646.2825
25.2700,630.6550
25.2800,703.5900
25.2900,780.1975
25.3000,716.2525
25.3100,796.3175
25.3200,806.3775
25.3300,809.8525
25.3400,771.7950
25.3500,925.8725
25.3600,1063.6500
25.3700,1082.7025
25.3800,1203.9125
25.3900,1206.8300
25.4000,1266.8575
25.4100,1390.2800
25.4200,1425.1300
25.4300,1524.6250
25.4400,1567.8875
25.4500,1670.9500
25.4600,1761.7700
25.4700,1886.3425
25.4800,1893.3325
25.4900,1946.7825
25.5000,1896.5950
25.5100,2097.3550
25.5200,2194.6750
25.5300,2087.1950
25.5400,2001.7300
25.5500,2109.2825
25.5600,2104.1650
25.5700,1937.8200
25.5800,1939.1475
25.5900,1771.6500
25.6000,1629.1725
25.6100,1451.9350
25.6200,1334.2725
25.6300,1189.9575
25.6400,1114.8075
25.6500,1029.3550
25.6600,846.6875
25.6700,693.9950
25.6800,661.6775
25.6900,622.9075
25.7000,582.9375
25.7100,555.3125
25.7200,510.1700
25.7300,472.7800
25.7400,470.0000
25.7500,488.4500
25.7600,499.2175
25.7700,457.0225
25.7800,484.0050
25.7900,492.7950
25.8000,474.9625
25.8100,500.8675
25.8200,503.3325
25.8300,442.2550
25.8400,461.0775
25.8500,445.0425
25.8600,415.9200
25.8700,416.3775
25.8800,471.4000
25.8900,443.2475
25.9000,421.7875
25.9100,447.2950
25.9200,459.0900
25.9300,435.7800
25.9400,424.2600
25.9500,450.5325
25.9600,477.4900
25.9700,395.5300
25.9800,401.7375
25.9900,454.5275
26.0000,463.0100
26.0100,445.2975
26.0200,398.2800
26.0300,438.3450
26.0400,434.3400
26.0500,388.4000
26.0600,410.2700
26.0700,443.2350
26.0800,425.7550
26.0900,414.3775
26.1000,416.3150
26.1100,431.5650
26.1200,412.4950
26.1300,404.0525
26.1400,409.2775
26.1500,454.5325
26.1600,445.1700
26.1700,401.8425
26.1800,423.3150
26.1900,408.9175
26.2000,406.6675
26.2100,415.5250
26.2200,449.1200
26.2300,518.1800
26.2400,435.3725
26.2500,429.2175
26.2600,462.3350
26.2700,487.2250
26.2800,484.1325
26.2900,533.1700
26.3000,528.2850
26.3100,523.7400
26.3200,552.5700
26.3300,571.2725
26.3400,567.4975
26.3500,546.2575
26.3600,610.3325
26.3700,646.1925
26.3800,638.3700
26.3900,607.6175
26.4000,681.6950
26.4100,702.0325
26.4200,726.5100
26.4300,709.7400
26.4400,738.4750
26.4500,783.7800
26.4600,781.3400
26.4700,748.2800
26.4800,760.6200
26.4900,829.5350
26.5000,825.6225
26.5100,829.0800
26.5200,795.5575
26.5300,735.5150
26.5400,718.0725
26.5500,748.1525
26.5600,753.3325
26.5700,767.6175
26.5800,730.0400
26.5900,680.5600
26.6000,676.1825
26.6100,605.5100
26.6200,579.1150
26.6300,582.3475
26.6400,546.4350
26.6500,554.1775
26.6600,556.6675
26.6700,514.2125
26.6800,501.0125
26.6900,502.8250
26.7000,492.0450
26.7100,458.9850
26.7200,450.5175
26.7300,452.8150
26.7400,467.3900
26.7500,433.4850
26.7600,437.8925
26.7700,437.1975
26.7800,481.4800
26.7900,462.0175
26.8000,487.4175
26.8100,443.0625
26.8200,424.9625
26.8300,431.6950
26.8400,441.6875
26.8500,457.2450
26.8600,471.1175
26.8700,451.1200
26.8800,449.4400
26.8900,474.9425
26.9000,441.2375
26.9100,422.2700
26.9200,436.5800
26.9300,431.7175
26.9400,449.3075
26.9500,475.3775
26.9600,424.9450
26.9700,385.8325
26.9800,393.7375
26.9900,473.5200
27.0000,429.6750
27.0100,419.4050
27.0200,441.8925
27.0300,463.0700
27.0400,458.4725
27.0500,423.9225
27.0600,441.2000
27.0700,443.9425
27.0800,421.5675
27.0900,400.3600
27.1000,429.2500
27.1100,455.6550
27.1200,454.5800
27.1300,461.4550
27.1400,466.0375
27.1500,426.1375
27.1600,413.9675
27.1700,424.1200
27.1800,458.9925
27.1900,445.1375
27.2000,472.2625
27.2100,466.5700
27.2200,447.2350
27.2300,483.5400
27.2400,501.3675
27.2500,524.7350
27.2600,530.0000
27.2700,551.3575
27.2800,505.9925
27.2900,482.6750
27.3000,453.3825
27.3100,467.9400
27.3200,483.9600
27.3300,510.5500
27.3400,543.1775
27.3500,547.3525
27.3600,562.5400
27.3700,593.0975
27.3800,613.2025
27.3900,685.2450
27.4000,737.5875
27.4100,751.9300
27.4200,798.0350
27.4300,854.6575
27.4400,971.6350
27.4500,1028.8375
27.4600,1123.0900
27.4700,1206.8375
27.4800,1299.1250
27.4900,1416.6000
27.5000,1472.0225
27.5100,1558.1625
27.5200,1741.3725
27.5300,1838.6675
27.5400,1978.0100
27.5500,2034.0900
27.5600,2068.5125
27.5700,2167.2950
27.5800,2327.8400
27.5900,2446.7700
27.6000,2539.6950
27.6100,2655.4100
27.6200,2652.4225
27.6300,2676.7850
27.6400,2599.2675
27.6500,2504.0000
27.6600,2349.9400
27.6700,2263.8750
27.6800,2250.0000
27.6900,2073.5550
27.7000,1836.0750
27.7100,1654.9600
27.7200,1499.4050
27.7300,1366.5675
27.7400,1252.7225
27.7500,1109.7750
27.7600,981.9500
27.7700,887.4050
27.7800,790.6750
27.7900,700.8775
27.8000,619.3350
27.8100,584.8500
27.8200,605.2225
27.8300,573.0200
27.8400,565.0350
27.8500,536.4950
27.8600,534.2025
27.8700,529.1400
27.8800,551.7300
27.8900,562.5025
27.9000,573.3375
27.9100,551.6850
27.9200,488.4325
27.9300,484.9575
27.9400,527.3525
27.9500,527.5625
27.9600,513.3950
27.9700,519.9275
27.9800,513.4150
27.9900,492.6625
28.0000,484.1925
28.0100,493.2175
28.0200,506.5425
28.0300,517.3975
28.0400,515.0725
28.0500,537.9400
28.0600,558.9575
28.0700,568.2450
28.0800,518.4975
28.0900,502.4500
28.1000,500.8850
28.1100,492.6675
28.1200,480.2325
28.1300,476.6675
28.1400,481.5400
28.1500,463.8625
28.1600,463.9600
28.1700,471.5225
28.1800,473.3325
28.1900,463.6400
28.2000,460.0000
28.2100,481.7600
28.2200,497.2450
28.2300,495.1750
28.2400,519.8400
28.2500,522.7800
28.2600,507.9800
28.2700,508.1375
28.2800,495.6075
28.2900,511.5650
28.3000,517.6075
28.3100,538.1850
28.3200,572.9350
28.3300,576.1775
28.3400,523.2950
28.3500,522.3750
28.3600,544.2650
28.3700,547.6250
28.3800,551.4100
28.3900,567.5500
28.4000,615.9325
28.4100,616.7850
28.4200,572.2200
28.4300,563.7425
28.4400,609.0725
28.4500,701.9700
28.4600,738.0350
28.4700,779.9150
28.4800,841.2250
28.4900,885.7675
28.5000,964.5225
28.5100,1121.8750
28.5200,1235.0275
28.5300,1315.9625
28.5400,1512.3525
28.5500,1626.2150
28.5600,1771.1375
28.5700,1912.5450
28.5800,2035.7800
28.5900,2256.2700
28.6000,2422.2475
28.6100,2584.7550
28.6200,2794.6100
28.6300,3017.7625
28.6400,3208.6850
28.6500,3410.5050
28.6600,3662.7125
28.6700,3939.3775
28.6800,4171.0325
28.6900,4454.1050
28.7000,4651.6375
28.7100,4801.7050
28.7200,4797.5425
28.7300,4645.7600
28.7400,4682.2325
28.7500,4647.1225
28.7600,4471.5275
28.7700,4261.5550
28.7800,4021.2175
28.7900,3761.3025
28.8000,3518.5150
28.8100,3389.1750
28.8200,3189.7800
28.8300,3027.8725
28.8400,2875.3225
28.8500,2752.6225
28.8600,2632.5150
28.8700,2464.5300
28.8800,2363.0525
28.8900,2336.6275
28.9000,2277.5225
28.9100,2187.5650
28.9200,2192.3000
28.9300,2101.0025
28.9400,2106.6525
28.9500,2172.1725
28.9600,2099.1300
28.9700,2086.5375
28.9800,2154.1875
28.9900,2347.8325
29.0000,2497.2975
29.0100,2549.8275
29.0200,2526.9950
29.0300,2536.3700
29.0400,2613.6525
29.0500,2675.1650
29.0600,2841.0775
29.0700,2915.6275
29.0800,2852.1775
29.0900,2789.4600
29.1000,2788.5850
29.1100,2809.7225
29.1200,2692.7800
29.1300,2572.3975
29.1400,2476.1225
29.1500,2388.0300
29.1600,2301.6075
29.1700,2203.0375
29.1800,2052.3275
29.1900,1961.9900
29.2000,1860.5875
29.2100,1712.3150
29.2200,1594.4150
29.2300,1414.2100
29.2400,1301.2150
29.2500,1259.8100
29.2600,1107.8325
29.2700,998.0025
29.2800,924.6050
29.2900,869.9275
29.3000,809.9125
29.3100,764.2300
29.3200,732.1350
29.3300,700.9450
29.3400,694.2300
29.3500,698.7775
29.3600,685.2350
29.3700,676.6675
29.3800,682.9775
29.3900,669.8575
29.4000,680.9850
29.4100,653.5150
29.4200,604.8825
29.4300,590.0000
29.4400,617.1400
29.4500,643.7575
29.4600,650.0000
29.4700,666.6375
29.4800,684.9750
29.4900,679.6275
29.5000,683.6925
29.5100,677.5875
29.5200,641.0725
29.5300,621.2700
29.5400,607.6350
29.5500,618.5250
29.5600,603.2775
29.5700,572.2975
29.5800,583.8350
29.5900,584.3825
29.6000,545.9950
29.6100,569.5525
29.6200,537.5225
29.6300,518.3300
29.6400,532.0350
29.6500,541.4600
29.6600,530.4375
29.6700,501.7650
29.6800,502.1400
29.6900,530.2075
29.7000,525.1700
29.7100,501.2400
29.7200,513.4600
29.7300,530.6875
29.7400,523.2975
29.7500,544.7325
29.7600,547.3175
29.7700,536.6675
29.7800,544.6525
29.7900,565.9525
29.8000,568.7025
29.8100,575.2650
29.8200,563.4750
29.8300,548.0175
29.8400,560.5300
29.8500,564.0675
29.8600,552.1000
29.8700,568.3650
29.8800,571.5150
29.8900,525.9575
29.9000,527.5025
29.9100,607.4850
29.9200,644.1225
29.9300,632.1750
29.9400,634.4825
29.9500,645.8525
29.9600,659.7425
29.9700,612.1850
29.9800,596.6500
29.9900,617.2150
30.0000,647.1300
30.0100,674.4075
30.0200,716.7175
30.0300,708.5975
30.0400,642.8650
30.0500,672.9900
30.0600,726.2750
30.0700,719.9000
30.0800,754.0775
30.0900,821.1150
30.1000,842.8450
30.1100,830.4575
30.1200,832.8625
30.1300,898.9950
30.1400,1002.2450
30.1500,1107.3950
30.1600,1174.1800
30.1700,1241.0950
30.1800,1380.1550
30.1900,1532.1475
30.2000,1663.4900
30.2100,1825.3750
30.2200,2077.6600
30.2300,2238.1450
30.2400,2338.6950
30.2500,2545.9400
30.2600,2816.9425
30.2700,3081.7925
30.2800,3446.7050
30.2900,3709.9175
30.3000,3832.4500
30.3100,4199.7875
30.3200,4565.2175
30.3300,4837.5700
30.3400,5183.1725
30.3500,5643.6075
30.3600,5888.8575
30.3700,6088.2700
30.3800,6397.2475
30.3900,6442.9850
30.4000,6392.8175
30.4100,6326.5425
30.4200,6183.0025
30.4300,6014.5775
30.4400,5769.8100
30.4500,5491.2525
30.4600,5264.7300
30.4700,5109.6100
30.4800,4874.1750
30.4900,4632.9825
30.5000,4506.1450
30.5100,4366.0425
30.5200,4123.2200
30.5300,3887.8675
30.5400,3783.6025
30.5500,3732.6375
30.5600,3663.9900
30.5700,3588.9275
30.5800,3647.8350
30.5900,3712.1950
30.6000,3767.7750
30.6100,3867.2775
30.6200,4002.8000
30.6300,4119.8800
30.6400,4252.8925
30.6500,4350.0000
30.6600,4457.4675
30.6700,4618.4200
30.6800,4620.4600
30.6900,4606.8300
30.7000,4666.2675
30.7100,4709.2325
30.7200,4634.1400
30.7300,4588.3500
30.7400,4564.1575
30.7500,4450.9150
30.7600,4379.3150
30.7700,4359.8675
30.7800,4311.6900
30.7900,4131.8250
30.8000,3918.8325
30.8100,3796.9525
30.8200,3607.0950
30.8300,3492.4150
30.8400,3369.2725
30.8500,3218.0225
30.8600,3023.8500
30.8700,2768.1150
30.8800,2543.5200
30.8900,2311.5000
30.9000,2225.0325
30.9100,2136.8175
30.9200,1999.2200
30.9300,1885.7800
30.9400,1771.0275
30.9500,1642.5050
30.9600,1494.3400
30.9700,1404.8600
30.9800,1391.6975
30.9900,1398.3400
31.0000,1420.0575
31.0100,1445.0050
31.0200,1450.0000
31.0300,1433.3650
31.0400,1496.3850
31.0500,1523.6075
31.0600,1494.8325
31.0700,1500.1650
31.0800,1405.7425
31.0900,1362.9500
31.1000,1422.9850
31.1100,1430.2925
31.1200,1329.6600
31.1300,1215.5650
31.1400,1173.5275
31.1500,1099.7000
31.1600,1013.7850
31.1700,946.1700
31.1800,834.9675
31.1900,768.3800
31.2000,763.4300
31.2100,732.5325
31.2200,675.9100
31.2300,633.7825
31.2400,599.1000
31.2500,565.4300
31.2600,546.9225
31.2700,533.6000
31.2800,531.4575
31.2900,527.1000
31.3000,503.9325
31.3100,499.5350
31.3200,532.2125
31.3300,559.8350
31.3400,553.8450
31.3500,543.3325
31.3600,525.9975
31.3700,527.1200
31.3800,535.8625
31.3900,512.1600
31.4000,493.9400
31.4100,522.4025
31.4200,544.8250
31.4300,510.6550
31.4400,487.5600
31.4500,495.0650
31.4600,518.4500
31.4700,518.2125
31.4800,504.5575
31.4900,505.1675
31.5000,528.2050
31.5100,542.2900
31.5200,550.5325
31.5300,508.1175
31.5400,495.7075
31.5500,563.5675
31.5600,588.1025
31.5700,559.3550
31.5800,522.3800
31.5900,484.2425
31.6000,480.8975
31.6100,509.6300
31.6200,516.7525
31.6300,487.6375
31.6400,466.1525
31.6500,459.3300
31.6600,472.6550
31.6700,502.4125
31.6800,530.0000
31.6900,512.1325
31.7000,497.4325
31.7100,517.0525
31.7200,507.7850
31.7300,497.7400
31.7400,508.1950
31.7500,483.0225
31.7600,487.6450
31.7700,524.6775
31.7800,519.8900
31.7900,488.5375
31.8000,502.7250
31.8100,510.2175
31.8200,477.3325
31.8300,462.4750
31.8400,480.1450
31.8500,494.7800
31.8600,493.7775
31.8700,495.7650
31.8800,481.7500
31.8900,480.6225
31.9000,508.0650
31.9100,499.5275
31.9200,496.1925
31.9300,478.1125
31.9400,456.7050
31.9500,443.3325
31.9600,444.7500
31.9700,457.9875
31.9800,460.6200
31.9900,443.3325
32.0000,464.4425
32.0100,496.1425
32.0200,508.4125
32.0300,504.6050
32.0400,466.5725
32.0500,429.3900
32.0600,390.5175
32.0700,381.3900
32.0800,431.6200
32.0900,451.4450
32.1000,436.9050
32.1100,431.5025
32.1200,405.8725
32.1300,413.7325
32.1400,426.4800
32.1500,424.8750
32.1600,444.8600
32.1700,432.1375
32.1800,396.6675
32.1900,406.1700
32.2000,411.8700
32.2100,410.8175
32.2200,425.3175
32.2300,407.1700
32.2400,406.1875
32.2500,448.0500
32.2600,447.9475
32.2700,401.9325
32.2800,364.0025
32.2900,377.9875
32.3000,405.9450
32.3100,443.2600
32.3200,463.3325
32.3300,451.4450
32.3400,441.2425
32.3500,445.4400
32.3600,432.0200
32.3700,415.5850
32.3800,403.7950
32.3900,420.0000
32.4000,417.3950
32.4100,417.2325
32.4200,409.0625
32.4300,391.8450
32.4400,406.4600
32.4500,430.8525
32.4600,450.7600
32.4700,435.1075
32.4800,410.2575
32.4900,408.9525
32.5000,429.7150
32.5100,420.8925
32.5200,400.1700
32.5300,407.7850
32.5400,408.5250
32.5500,464.9200
32.5600,490.1900
32.5700,451.7000
32.5800,473.8125
32.5900,480.3775
32.6000,447.0825
32.6100,457.8800
32.6200,513.2575
32.6300,550.3950
32.6400,543.0275
32.6500,533.6100
32.6600,554.1975
32.6700,567.2500
32.6800,594.2075
32.6900,612.0850
32.7000,631.6350
32.7100,597.5575
32.7200,595.7725
32.7300,621.8975
32.7400,646.6475
32.7500,613.6425
32.7600,585.7875
32.7700,569.0800
32.7800,584.1650
32.7900,610.5400
32.8000,602.9600
32.8100,542.7500
32.8200,508.3525
32.8300,516.1900
32.8400,496.2050
32.8500,490.4450
32.8600,496.2375
32.8700,480.9725
32.8800,462.5350
32.8900,431.9675
32.9000,433.8850
32.9100,449.8250
32.9200,426.9925
32.9300,402.4900
32.9400,413.3325
32.9500,413.3325
32.9600,407.5500
32.9700,409.3650
32.9800,432.1825
32.9900,439.1925
33.0000,444.0550
33.0100,431.4400
33.0200,437.3550
33.0300,415.7775
33.0400,427.6525
33.0500,412.1325
33.0600,416.9050
33.0700,452.3600
33.0800,456.4900
33.0900,423.2600
33.1000,423.4475
33.1100,446.6450
33.1200,423.2675
33.1300,405.5800
33.1400,446.6600
33.1500,461.1275
33.1600,430.1075
33.1700,402.1275
33.1800,436.5675
33.1900,455.5700
33.2000,447.8600
33.2100,456.3275
33.2200,496.6675
33.2300,487.9700
33.2400,451.5625
33.2500,407.9225
33.2600,408.5400
33.2700,441.9475
33.2800,453.5550
33.2900,446.4300
33.3000,486.7250
33.3100,533.7350
33.3200,501.6300
33.3300,475.6050
33.3400,476.5100
33.3500,487.5575
33.3600,497.7200
33.3700,508.4075
33.3800,517.2300
33.3900,497.7125
33.4000,508.3475
33.4100,529.7900
33.4200,534.5900
33.4300,523.7875
33.4400,505.8675
33.4500,498.7275
33.4600,507.4450
33.4700,533.0725
33.4800,563.8625
33.4900,545.9200
33.5000,527.5075
33.5100,504.6375
33.5200,493.9250
33.5300,468.8900
33.5400,453.4075
33.5500,495.7575
33.5600,536.9925
33.5700,530.0000
33.5800,535.9825
33.5900,544.0325
33.6000,535.9525
33.6100,564.8400
33.6200,586.1850
33.6300,566.1300
33.6400,602.5575
33.6500,626.4575
33.6600,663.6725
33.6700,693.7450
33.6800,701.2400
33.6900,744.4175
33.7000,772.9975
33.7100,812.0875
33.7200,850.9600
33.7300,847.5800
33.7400,849.5875
33.7500,903.3500
33.7600,943.3250
33.7700,958.1025
33.7800,954.2800
33.7900,963.2700
33.8000,984.7050
33.8100,1016.3700
33.8200,1061.9875
33.8300,1063.0650
33.8400,1110.6250
33.8500,1152.2350
33.8600,1189.8050
33.8700,1260.1525
33.8800,1313.3575
33.8900,1409.0325
33.9000,1493.1425
33.9100,1566.7875
33.9200,1680.3450
33.9300,1804.4900
33.9400,1927.4400
33.9500,2018.1225
33.9600,2094.9025
33.9700,2275.6425
33.9800,2380.3375
33.9900,2523.0450
34.0000,2847.1750
34.0100,3008.0100
34.0200,3068.5375
34.0300,3206.0900
34.0400,3002.9625
34.0500,2928.0725
34.0600,2765.4625
34.0700,2725.8925
34.0800,2659.2775
34.0900,2552.7800
34.1000,2331.2175
34.1100,2130.5800
34.1200,2025.4950
34.1300,1987.3350
34.1400,1940.9550
34.1500,1829.4100
34.1600,1710.9350
34.1700,1589.8925
34.1800,1558.1825
34.1900,1498.0850
34.2000,1435.0800
34.2100,1464.9800
34.2200,1466.6800
34.2300,1515.0025
34.2400,1510.8300
34.2500,1519.1175
34.2600,1526.7800
34.2700,1490.0950
34.2800,1458.5350
34.2900,1436.3950
34.3000,1476.6675
34.3100,1463.6875
34.3200,1406.3500
34.3300,1350.9150
34.3400,1340.1175
34.3500,1336.4100
34.3600,1343.0900
34.3700,1302.3875
34.3800,1309.2075
34.3900,1320.1150
34.4000,1365.7000
34.4100,1362.3300
34.4200,1324.3150
34.4300,1326.8200
34.4400,1382.5750
34.4500,1433.3875
34.4600,1340.4250
34.4700,1323.6700
34.4800,1442.8250
34.4900,1418.5125
34.5000,1394.5025
34.5100,1474.5275
34.5200,1576.2075
34.5300,1551.2400
34.5400,1513.0125
34.5500,1515.0750
34.5600,1503.8775
34.5700,1562.5875
34.5800,1562.9725
34.5900,1574.0750
34.6000,1591.4300
34.6100,1645.5400
34.6200,1674.5950
34.6300,1755.8450
34.6400,1761.3750
34.6500,1708.1175
34.6600,1714.0575
34.6700,1710.9025
34.6800,1697.9000
34.6900,1715.2175
34.7000,1629.1200
34.7100,1447.4800
34.7200,1382.3325
34.7300,1370.1700
34.7400,1239.6350
34.7500,1210.5300
34.7600,1183.2450
34.7700,1113.0450
34.7800,1077.6575
34.7900,1028.1400
34.8000,966.5600
34.8100,934.1375
34.8200,849.0700
34.8300,813.4725
34.8400,831.8625
34.8500,785.8125
34.8600,723.9425
34.8700,700.0000
34.8800,678.6200
34.8900,593.3325
34.9000,595.9850
34.9100,602.0425
34.9200,593.2050
34.9300,611.0425
34.9400,510.8550
34.9500,488.9500
34.9600,548.1475
34.9700,524.7300
34.9800,513.4500
34.9900,480.1375
35.0000,403.0500
35.0100,431.9075
35.0200,440.6325
35.0300,443.3325
35.0400,443.9625
35.0500,446.6675
35.0600,456.6400
35.0700,486.9625
35.0800,438.0375
35.0900,470.2550
35.1000,452.9875
35.1100,434.2225
35.1200,417.8575
35.1300,398.7875
35.1400,419.7125
35.1500,408.7425
35.1600,435.7275
35.1700,444.8775
35.1800,431.9175
35.1900,407.6350
35.2000,411.9700
35.2100,482.7475
35.2200,478.2500
35.2300,465.9325
35.2400,436.8300
35.2500,392.8800
35.2600,415.2725
35.2700,453.2400
35.2800,440.0800
35.2900,457.2325
35.3000,457.7450
35.3100,448.3500
35.3200,455.5500
35.3300,452.7825
35.3400,458.3575
35.3500,416.6675
35.3600,421.0600
35.3700,450.9850
35.3800,486.1900
35.3900,464.5000
35.4000,459.2650
35.4100,494.2925
35.4200,510.2550
35.4300,467.0950
35.4400,416.6675
35.4500,417.7200
35.4600,422.2850
35.4700,419.7975
35.4800,431.4725
35.4900,402.3000
35.5000,396.1525
35.5100,395.8950
35.5200,410.0000
35.5300,413.0425
35.5400,424.4475
35.5500,395.3425
35.5600,408.6650
35.5700,425.4725
35.5800,462.6050
35.5900,491.2500
35.6000,456.0800
35.6100,436.2600
35.6200,447.0275
35.6300,410.0000
35.6400,414.8025
35.6500,439.9900
35.6600,410.9675
35.6700,364.2325
35.6800,406.7075
35.6900,389.9425
35.7000,404.8800
35.7100,374.2600
35.7200,385.0675
35.7300,415.7500
35.7400,407.2650
35.7500,391.3600
35.7600,408.5675
35.7700,465.5750
35.7800,477.3250
35.7900,465.7675
35.8000,501.5675
35.8100,490.8775
35.8200,501.9025
35.8300,542.3075
35.8400,579.5675
35.8500,570.6600
35.8600,533.8400
35.8700,554.0625
35.8800,517.9725
35.8900,550.0000
35.9000,552.5000
35.9100,563.7850
35.9200,524.1200
35.9300,561.9325
35.9400,624.1475
35.9500,629.1900
35.9600,625.3450
35.9700,638.4000
35.9800,630.2425
35.9900,654.6925
36.0000,647.8500
36.0100,709.3975
36.0200,729.2250
36.0300,724.4900
36.0400,731.4200
36.0500,718.1875
36.0600,730.3775
36.0700,727.3250
36.0800,678.1350
36.0900,667.0400
36.1000,690.7725
36.1100,637.4775
36.1200,592.1800
36.1300,610.7225
36.1400,610.2100
36.1500,553.1050
36.1600,520.5025
36.1700,500.1800
36.1800,527.9050
36.1900,508.6125
36.2000,489.7825
36.2100,432.7350
36.2200,453.6125
36.2300,424.3075
36.2400,412.3675
36.2500,490.3450
36.2600,459.3775
36.2700,424.9700
36.2800,440.6500
36.2900,441.1825
36.3000,389.6800
36.3100,388.2550
36.3200,400.4950
36.3300,374.2725
36.3400,385.1975
36.3500,403.9500
36.3600,407.2475
36.3700,377.5725
36.3800,357.8475
36.3900,398.2575
36.4000,355.2550
36.4100,439.8075
36.4200,405.6650
36.4300,427.4000
36.4400,402.5800
36.4500,432.2725
36.4600,454.6950
36.4700,429.1425
36.4800,383.8875
36.4900,393.2950
36.5000,425.3725
36.5100,376.0325
36.5200,405.5975
36.5300,394.3925
36.5400,410.0800
36.5500,448.9600
36.5600,435.6350
36.5700,426.6550
36.5800,464.6425
36.5900,437.2425
36.6000,405.3200
36.6100,434.6725
36.6200,492.1150
36.6300,473.7725
36.6400,439.5325
36.6500,477.8500
36.6600,492.3975
36.6700,481.1575
36.6800,493.4550
36.6900,450.2275
36.7000,455.8025
36.7100,490.8900
36.7200,506.4100
36.7300,551.9575
36.7400,579.7850
36.7500,574.1150
36.7600,542.3450
36.7700,624.1700
36.7800,587.4900
36.7900,600.2025
36.8000,601.7275
36.8100,575.6750
36.8200,559.2150
36.8300,545.5050
36.8400,526.4750
36.8500,523.1450
36.8600,520.7475
36.8700,531.6750
36.8800,500.0575
36.8900,443.6925
36.9000,452.8350
36.9100,501.9350
36.9200,473.5600
36.9300,417.1775
36.9400,426.6675
36.9500,425.6750
36.9600,407.6450
36.9700,426.5050
36.9800,423.1750
36.9900,420.0000
37.0000,418.4625
37.0100,389.8450
37.0200,455.7725
37.0300,434.6125
37.0400,389.2775
37.0500,374.3275
37.0600,398.0625
37.0700,430.6875
37.0800,446.2625
37.0900,438.1250
37.1000,473.4625
37.1100,473.3425
37.1200,392.2600
37.1300,450.6150
37.1400,466.5450
37.1500,462.8600
37.1600,448.9550
37.1700,420.9100
37.1800,447.7825
37.1900,480.0000
37.2000,481.1750
37.2100,515.7250
37.2200,486.4625
37.2300,478.6025
37.2400,434.9900
37.2500,489.4300
37.2600,468.3300
37.2700,411.4475
37.2800,464.2150
37.2900,495.6375
37.3000,456.8325
37.3100,464.0650
37.3200,493.8075
37.3300,513.5625
37.3400,523.7775
37.3500,543.0450
37.3600,530.1400
37.3700,536.2625
37.3800,517.8350
37.3900,577.1675
37.4000,601.6450
37.4100,510.9850
37.4200,568.1125
37.4300,653.1725
37.4400,643.3850
37.4500,646.2775
37.4600,620.1850
37.4700,634.3025
37.4800,707.7100
37.4900,790.1175
37.5000,800.5200
37.5100,846.9800
37.5200,876.2125
37.5300,830.7850
37.5400,916.9450
37.5500,950.8700
37.5600,1063.8925
37.5700,1144.1100
37.5800,1267.1700
37.5900,1357.4850
37.6000,1523.8675
37.6100,1649.8125
37.6200,1596.7800
37.6300,1636.8450
37.6400,1720.1950
37.6500,1853.4675
37.6600,2026.6775
37.6700,2163.2500
37.6800,2283.1775
37.6900,2293.3125
37.7000,2462.8775
37.7100,2656.0150
37.7200,2596.9100
37.7300,2709.4625
37.7400,2889.0225
37.7500,3062.2725
37.7600,3149.4100
37.7700,3017.6650
37.7800,3000.1375
37.7900,2986.7850
37.8000,3049.3950
37.8100,3125.8825
37.8200,3031.0550
37.8300,2838.9100
37.8400,2853.1275
37.8500,2725.0200
37.8600,2677.3050
37.8700,2689.8100
37.8800,2712.9825
37.8900,2480.3850
37.9000,2499.6175
37.9100,2549.1450
37.9200,2448.5025
37.9300,2292.8900
37.9400,2299.8075
37.9500,2342.4750
37.9600,2343.3325
37.9700,2333.5450
37.9800,2297.4675
37.9900,2267.3425
38.0000,2315.5050
38.0100,2193.0275
38.0200,2238.7700
38.0300,2285.4875
38.0400,2358.0975
38.0500,2278.8850
38.0600,2296.1200
38.0700,2468.3925
38.0800,2499.2350
38.0900,2260.5675
38.1000,2217.7675
38.1100,2110.0425
38.1200,2067.9225
38.1300,1960.1925
38.1400,2008.2550
38.1500,1935.8925
38.1600,1794.8850
38.1700,1613.0375
38.1800,1439.4750
38.1900,1391.5650
38.2000,1425.3175
38.2100,1288.7025
38.2200,1267.3025
38.2300,1176.9550
38.2400,1051.6675
38.2500,1033.8675
38.2600,895.8525
38.2700,883.6100
38.2800,931.2250
38.2900,872.7125
38.3000,812.6100
38.3100,810.0000
38.3200,790.8975
38.3300,786.8175
38.3400,843.8950
38.3500,862.5525
38.3600,809.3600
38.3700,841.5650
38.3800,865.5250
38.3900,879.3400
38.4000,908.4925
38.4100,970.1100
38.4200,1068.1750
38.4300,1095.4475
38.4400,1175.5900
38.4500,1205.2375
38.4600,1279.1750
38.4700,1289.6350
38.4800,1390.7375
38.4900,1428.1250
38.5000,1552.6000
38.5100,1503.4550
38.5200,1493.7225
38.5300,1414.9100
38.5400,1491.5025
38.5500,1462.2100
38.5600,1460.0000
38.5700,1397.4400
38.5800,1280.8025
38.5900,1292.0750
38.6000,1258.9975
38.6100,1203.6400
38.6200,1087.7900
38.6300,1023.9350
38.6400,1020.0000
38.6500,982.6750
38.6600,936.4875
38.6700,927.1225
38.6800,923.5625
38.6900,836.4925
38.7000,820.7025
38.7100,785.9325
38.7200,665.7275
38.7300,693.7775
38.7400,712.1200
38.7500,663.9200
38.7600,653.8275
38.7700,659.5000
38.7800,650.7550
38.7900,597.6500
38.8000,596.4100
38.8100,658.1675
38.8200,592.6575
38.8300,543.6775
38.8400,546.1375
38.8500,568.1300
38.8600,594.5125
38.8700,587.4800
38.8800,556.0700
38.8900,571.6775
38.9000,561.1125
38.9100,553.8925
38.9200,544.1800
38.9300,582.9675
38.9400,671.9725
38.9500,728.7100
38.9600,745.5025
38.9700,774.0275
38.9800,785.7800
38.9900,886.8450
39.0000,1011.9400
39.0100,1165.8075
39.0200,1286.0200
39.0300,1305.7475
39.0400,1358.0875
39.0500,1568.8725
39.0600,1686.6550
39.0700,1826.4525
39.0800,1960.6450
39.0900,2069.7800
39.1000,2212.5175
39.1100,2172.4925
39.1200,2220.8000
39.1300,2352.8875
39.1400,2198.4925
39.1500,2146.9900
39.1600,2128.3400
39.1700,1976.8350
39.1800,1855.1925
39.1900,1798.4475
39.2000,1697.6475
39.2100,1585.0750
39.2200,1510.6300
39.2300,1455.5950
39.2400,1420.1850
39.2500,1342.1825
39.2600,1241.0400
39.2700,1140.7475
39.2800,1085.4075
39.2900,999.7900
39.3000,877.1925
39.3100,821.8025
39.3200,855.2025
39.3300,862.9625
39.3400,875.1725
39.3500,894.4150
39.3600,970.5600
39.3700,1006.5825
39.3800,980.4850
39.3900,1029.7550
39.4000,1116.2400
39.4100,1106.0525
39.4200,1197.5050
39.4300,1304.1050
39.4400,1337.2375
39.4500,1243.0950
39.4600,1218.2625
39.4700,1363.2775
39.4800,1348.1725
39.4900,1296.4850
39.5000,1234.4100
39.5100,1176.9650
39.5200,1170.0000
39.5300,1094.0950
39.5400,1135.8450
39.5500,1090.8600
39.5600,958.0725
39.5700,1038.9725
39.5800,1047.5150
39.5900,1029.2275
39.6000,1015.0475
39.6100,993.0150
39.6200,923.2925
39.6300,919.1300
39.6400,986.6100
39.6500,976.4075
39.6600,993.5775
39.6700,1089.1400
39.6800,1054.2425
39.6900,1121.6900
39.7000,1297.6900
39.7100,1294.5200
39.7200,1413.8075
39.7300,1430.4550
39.7400,1559.3750
39.7500,1660.4425
39.7600,1681.9450
39.7700,1683.3325
39.7800,1669.0000
39.7900,1652.3450
39.8000,1587.0275
39.8100,1545.2025
39.8200,1528.5675
39.8300,1392.4300
39.8400,1307.2125
39.8500,1339.4450
39.8600,1246.9225
39.8700,1195.8275
39.8800,1167.2350
39.8900,1103.6175
39.9000,1025.1375
39.9100,970.7425
39.9200,849.8425
39.9300,761.9550
39.9400,682.0050
39.9500,692.6475
39.9600,716.4700
39.9700,640.8475
39.9800,561.6975
39.9900,533.0625
40.0000,498.9725
40.0100,482.0600
40.0200,480.0000
40.0300,482.8150
40.0400,480.5200
40.0500,471.5700
40.0600,484.0400
40.0700,469.8300
40.0800,494.7075
40.0900,508.4050
40.1000,493.2000
40.1100,464.8200
40.1200,423.6550
40.1300,439.0175
40.1400,423.7925
40.1500,459.0550
40.1600,430.4300
40.1700,448.4025
40.1800,467.2500
40.1900,447.7500
40.2000,451.6700
40.2100,478.3275
40.2200,472.2325
40.2300,492.1850
40.2400,449.5575
40.2500,498.1500
40.2600,496.1650
40.2700,454.6250
40.2800,463.2450
40.2900,444.5800
40.3000,462.0700
40.3100,466.6675
40.3200,430.8550
40.3300,415.0750
40.3400,396.8300
40.3500,426.3150
40.3600,416.8550
40.3700,432.5450
40.3800,439.4100
40.3900,429.0375
40.4000,473.2200
40.4100,516.1700
40.4200,523.3325
40.4300,474.1525
40.4400,460.6025
40.4500,490.0100
40.4600,502.1200
40.4700,476.0925
40.4800,461.8325
40.4900,489.9200
40.5000,523.8475
40.5100,513.7050
40.5200,469.2900
40.5300,516.9525
40.5400,530.0000
40.5500,540.8325
40.5600,535.2150
40.5700,592.8200
40.5800,593.1575
40.5900,590.0000
40.6000,568.4175
40.6100,574.1175
40.6200,565.8925
40.6300,560.6425
40.6400,565.3800
40.6500,601.6075
40.6600,588.5125
40.6700,599.4350
40.6800,640.8775
40.6900,612.4825
40.7000,616.7225
40.7100,587.8900
40.7200,606.7375
40.7300,661.4250
40.7400,726.7300
40.7500,769.3450
40.7600,800.6600
40.7700,857.2800
40.7800,955.1775
40.7900,995.2850
40.8000,1037.2100
40.8100,1203.3600
40.8200,1277.8325
40.8300,1400.6975
40.8400,1475.0475
40.8500,1587.2850
40.8600,1721.8150
40.8700,1871.6200
40.8800,2051.2800
40.8900,2198.2375
40.9000,2337.4600
40.9100,2443.1100
40.9200,2452.7975
40.9300,2468.4250
40.9400,2610.0950
40.9500,2549.4275
40.9600,2420.9150
40.9700,2285.7450
40.9800,2128.1800
40.9900,2088.0925
41.0000,1963.6100
41.0100,1859.3625
41.0200,1824.3150
41.0300,1762.5300
41.0400,1647.4725
41.0500,1541.7475
41.0600,1413.1375
41.0700,1302.5950
41.0800,1227.9500
41.0900,1101.5100
41.1000,968.6550
41.1100,893.2600
41.1200,828.1075
41.1300,758.8875
41.1400,740.7425
41.1500,706.3450
41.1600,642.3425
41.1700,605.9875
41.1800,571.5875
41.1900,537.5225
41.2000,524.8425
41.2100,507.8700
41.2200,513.6350
41.2300,508.9475
41.2400,527.2375
41.2500,528.1950
41.2600,459.9150
41.2700,455.3925
41.2800,447.1825
41.2900,415.1550
41.3000,447.6225
41.3100,470.2300
41.3200,440.1075
41.3300,419.7850
41.3400,426.8750
41.3500,432.5500
41.3600,458.8150
41.3700,448.8425
41.3800,422.9800
41.3900,447.1750
41.4000,441.4250
41.4100,459.5125
41.4200,443.8375
41.4300,439.2025
41.4400,475.4575
41.4500,476.5425
41.4600,450.5725
41.4700,430.6975
41.4800,411.5175
41.4900,472.2675
41.5000,475.6850
41.5100,447.3275
41.5200,455.1050
41.5300,485.1550
41.5400,503.3875
41.5500,484.0625
41.5600,469.1375
41.5700,491.7450
41.5800,525.0600
41.5900,520.8125
41.6000,481.6375
41.6100,505.0025
41.6200,511.6700
41.6300,505.0075
41.6400,523.2900
41.6500,542.4625
41.6600,516.7775
41.6700,556.4450
41.6800,565.8725
41.6900,575.7600
41.7000,540.2675
41.7100,514.2600
41.7200,507.5200
41.7300,541.3525
41.7400,540.9550
41.7500,551.5100
41.7600,534.4200
41.7700,467.3850
41.7800,478.7525
41.7900,472.7350
41.8000,419.8425
41.8100,450.1225
41.8200,481.4300
41.8300,437.4900
41.8400,407.7150
41.8500,418.0625
41.8600,428.2400
41.8700,430.0000
41.8800,442.2475
41.8900,456.4575
41.9000,457.5550
41.9100,422.4525
41.9200,407.5575
41.9300,370.0650
41.9400,398.1175
41.9500,420.6425
41.9600,418.4650
41.9700,416.6675
41.9800,406.9425
41.9900,410.6200
42.0000,418.1875
42.0100,422.4250
42.0200,418.4875
42.0300,419.0875
42.0400,432.1000
42.0500,410.0700
42.0600,404.8325
42.0700,384.9375
42.0800,434.5650
42.0900,418.0975
42.1000,357.5675
42.1100,361.6625
42.1200,372.4050
42.1300,411.7850
42.1400,405.0550
42.1500,389.4675
42.1600,403.4500
42.1700,421.9800
42.1800,429.0600
42.1900,427.6075
42.2000,426.6675
42.2100,464.8825
42.2200,448.9725
42.2300,450.9750
42.2400,466.2000
42.2500,417.6125
42.2600,396.6675
42.2700,401.4225
42.2800,427.0925
42.2900,434.2925
42.3000,414.3550
42.3100,392.4450
42.3200,417.4575
42.3300,474.9675
42.3400,474.4150
42.3500,459.5775
42.3600,430.6925
42.3700,441.2350
42.3800,471.2200
42.3900,465.8650
42.4000,471.7700
42.4100,495.4850
42.4200,498.6325
42.4300,545.9900
42.4400,601.8700
42.4500,654.1875
42.4600,630.1625
42.4700,641.4325
42.4800,690.7700
42.4900,725.3700
42.5000,780.0575
42.5100,835.0150
42.5200,817.3450
42.5300,849.9500
42.5400,853.6975
42.5500,776.8500
42.5600,795.5000
42.5700,853.8450
42.5800,890.8975
42.5900,913.9200
42.6000,880.5875
42.6100,870.2825
42.6200,896.4825
42.6300,922.8575
42.6400,934.6225
42.6500,929.7375
42.6600,926.6675
42.6700,933.5850
42.6800,885.9750
42.6900,969.2450
42.7000,1067.2800
42.7100,1067.0100
42.7200,1038.2900
42.7300,1057.5450
42.7400,1010.3650
42.7500,893.9500
42.7600,899.1350
42.7700,977.2075
42.7800,987.3275
42.7900,906.8850
42.8000,800.2750
42.8100,752.9775
42.8200,794.5375
42.8300,841.7225
42.8400,803.2600
42.8500,716.3175
42.8600,684.3950
42.8700,701.5000
42.8800,703.1925
42.8900,631.9775
42.9000,572.8125
42.9100,573.5825
42.9200,543.8050
42.9300,535.7075
42.9400,533.2250
42.9500,489.3750
42.9600,467.7450
42.9700,457.6525
42.9800,469.0950
42.9900,476.6675
43.0000,465.4250
43.0100,471.2325
43.0200,512.5850
43.0300,512.0550
43.0400,483.1600
43.0500,441.9775
43.0600,433.3800
43.0700,463.5025
43.0800,485.6050
43.0900,503.3975
43.1000,487.6875
43.1100,494.5025
43.1200,487.7400
43.1300,491.1300
43.1400,463.3025
43.1500,460.0025
43.1600,506.6425
43.1700,539.9825
43.1800,526.7100
43.1900,518.8825
43.2000,513.3575
43.2100,514.4250
43.2200,501.1925
43.2300,486.7050
43.2400,494.3700
43.2500,502.2050
43.2600,514.3525
43.2700,537.6175
43.2800,518.0600
43.2900,472.5475
43.3000,496.2175
43.3100,525.4500
43.3200,519.0300
43.3300,524.2950
43.3400,505.9050
43.3500,493.3325
43.3600,491.1450
43.3700,494.3700
43.3800,535.9750
43.3900,563.2125
43.4000,586.2900
43.4100,624.9900
43.4200,642.1775
43.4300,628.1050
43.4400,624.3475
43.4500,672.2825
43.4600,696.6675
43.4700,692.3300
43.4800,718.1725
43.4900,731.1675
43.5000,732.1650
43.5100,729.0100
43.5200,763.3950
43.5300,761.7450
43.5400,790.9875
43.5500,770.2225
43.5600,716.5125
43.5700,715.0650
43.5800,746.9900
43.5900,744.9575
43.6000,719.4875
43.6100,763.6425
43.6200,791.1900
43.6300,790.0000
43.6400,792.1400
43.6500,776.2200
43.6600,798.7300
43.6700,865.7925
43.6800,938.1525
43.6900,1033.7100
43.7000,1083.9875
43.7100,1109.1650
43.7200,1162.5550
43.7300,1182.4150
43.7400,1328.7125
43.7500,1453.6675
43.7600,1557.2725
43.7700,1633.0075
43.7800,1711.4225
43.7900,1761.4800
43.8000,1846.1300
43.8100,1982.9775
43.8200,2085.2325
43.8300,2102.7850
43.8400,2153.5900
43.8500,2186.6675
43.8600,2115.0950
43.8700,2113.3000
43.8800,2088.3250
43.8900,2036.8975
43.9000,2019.1350
43.9100,1951.6575
43.9200,1915.4300
43.9300,1855.9450
43.9400,1790.7075
43.9500,1813.0550
43.9600,1751.0150
43.9700,1643.6375
43.9800,1570.3675
43.9900,1519.5700
44.0000,1395.0325
44.0100,1269.6475
44.0200,1235.4125
44.0300,1172.2500
44.0400,1087.6525
44.0500,1095.2725
44.0600,1114.5925
44.0700,1065.6850
44.0800,1057.3675
44.0900,1061.7250
44.1000,1011.1950
44.1100,1008.1175
44.1200,1023.3325
44.1300,1035.7075
44.1400,1000.0600
44.1500,1055.6950
44.1600,1145.7600
44.1700,1213.1750
44.1800,1182.4775
44.1900,1124.0850
44.2000,1128.4600
44.2100,1174.8450
44.2200,1161.8475
44.2300,1164.5600
44.2400,1212.7200
44.2500,1155.6825
44.2600,1069.9125
44.2700,991.5775
44.2800,950.5500
44.2900,977.2250
44.3000,992.5950
44.3100,979.8300
44.3200,944.8775
44.3300,900.2625
44.3400,863.0375
44.3500,839.8600
44.3600,837.3875
44.3700,827.8500
44.3800,860.4675
44.3900,882.6225
44.4000,855.7550
44.4100,807.7000
44.4200,794.7350
44.4300,795.9675
44.4400,775.2050
44.4500,727.1050
44.4600,717.4125
44.4700,730.6850
44.4800,725.3000
44.4900,720.0000
44.5000,683.9075
44.5100,657.9975
44.5200,662.6725
44.5300,658.6650
44.5400,659.3300
44.5500,677.3150
44.5600,716.6075
44.5700,738.6600
44.5800,757.9375
44.5900,732.1600
44.6000,702.6875
44.6100,713.9200
44.6200,687.5675
44.6300,679.2175
44.6400,695.9525
44.6500,692.0700
44.6600,645.0650
44.6700,565.1975
44.6800,549.7800
44.6900,551.4750
44.7000,529.5075
44.7100,555.5250
44.7200,562.2500
44.7300,540.1475
44.7400,541.2100
44.7500,511.2475
44.7600,486.6675
44.7700,514.1725
44.7800,499.9575
44.7900,470.7825
44.8000,494.1100
44.8100,497.6625
44.8200,471.0075
44.8300,458.0450
44.8400,458.6200
44.8500,440.4700
44.8600,444.2300
44.8700,458.6175
44.8800,444.4125
44.8900,446.9625
44.9000,464.4500
44.9100,460.2800
44.9200,441.6775
44.9300,472.1600
44.9400,513.5800
44.9500,517.5175
44.9600,509.4600
44.9700,543.4400
44.9800,593.2075
44.9900,638.9900
45.0000,677.3800
45.0100,701.5775
45.0200,675.2925
45.0300,634.5850
45.0400,638.7375
45.0500,663.4675
45.0600,619.5025
45.0700,566.5525
45.0800,579.7025
45.0900,560.2200
45.1000,562.0850
45.1100,575.6725
45.1200,537.4625
45.1300,528.6325
45.1400,557.2000
45.1500,579.5475
45.1600,559.9500
45.1700,513.3050
45.1800,493.3325
45.1900,472.3900
45.2000,471.8875
45.2100,500.4450
45.2200,490.5350
45.2300,450.5525
45.2400,444.7150
45.2500,445.7500
45.2600,445.6825
45.2700,417.8225
45.2800,423.5950
45.2900,473.1250
45.3000,461.2275
45.3100,427.2300
45.3200,425.6575
45.3300,465.8025
45.3400,514.0450
45.3500,526.2375
45.3600,498.8900
45.3700,444.3025
45.3800,446.7050
45.3900,492.5125
45.4000,495.0025
45.4100,477.7125
45.4200,463.9750
45.4300,475.3725
45.4400,471.3075
45.4500,503.3600
45.4600,543.7325
45.4700,550.3975
45.4800,551.4700
45.4900,563.0350
45.5000,584.5000
45.5100,604.4900
45.5200,613.3325
45.5300,602.1925
45.5400,585.9125
45.5500,607.8125
45.5600,642.9700
45.5700,662.5900
45.5800,679.2500
45.5900,686.6675
45.6000,658.9575
45.6100,634.8200
45.6200,653.6250
45.6300,662.6275
45.6400,662.1925
45.6500,644.5800
45.6600,622.9875
45.6700,594.2700
45.6800,597.2100
45.6900,627.6775
45.7000,653.1725
45.7100,677.6625
45.7200,684.8350
45.7300,690.6525
45.7400,714.9525
45.7500,761.0625
45.7600,841.4450
45.7700,886.6675
45.7800,897.6075
45.7900,957.6800
45.8000,1036.4125
45.8100,1099.4150
45.8200,1217.5650
45.8300,1366.0000
45.8400,1424.8525
45.8500,1510.4075
45.8600,1626.8400
45.8700,1685.0700
45.8800,1781.1675
45.8900,1785.1675
45.9000,1738.7550
45.9100,1759.5900
45.9200,1722.7950
45.9300,1683.6075
45.9400,1643.4125
45.9500,1586.8550
45.9600,1539.4050
45.9700,1509.7375
45.9800,1476.1150
45.9900,1405.1050
46.0000,1318.2150
46.0100,1310.7375
46.0200,1323.8725
46.0300,1238.3725
46.0400,1148.0350
46.0500,1085.7825
46.0600,1049.7600
46.0700,1005.5975
46.0800,934.3150
46.0900,890.8525
46.1000,855.0550
46.1100,826.2125
46.1200,755.9475
46.1300,700.0000
46.1400,662.6900
46.1500,622.8975
46.1600,602.4725
46.1700,582.9075
46.1800,578.4375
46.1900,580.0000
46.2000,557.0025
46.2100,540.2025
46.2200,532.7350
46.2300,516.2725
46.2400,510.0000
46.2500,518.8150
46.2600,514.3350
46.2700,471.6475
46.2800,466.2025
46.2900,506.0025
46.3000,495.2275
46.3100,480.5325
46.3200,479.4750
46.3300,468.2475
46.3400,459.6600
46.3500,477.8400
46.3600,494.7525
46.3700,483.0075
46.3800,473.1725
46.3900,471.7450
46.4000,506.4750
46.4100,531.4375
46.4200,521.4400
46.4300,506.2225
46.4400,498.4050
46.4500,503.4775
46.4600,520.5625
46.4700,543.7475
46.4800,570.6800
46.4900,597.0675
46.5000,603.2025
46.5100,646.7350
46.5200,665.7825
46.5300,698.6475
46.5400,772.4550
46.5500,807.1425
46.5600,809.6500
46.5700,808.6175
46.5800,847.6725
46.5900,926.5850
46.6000,969.8925
46.6100,990.7325
46.6200,1051.1250
46.6300,1093.5325
46.6400,1065.6925
46.6500,1040.1900
46.6600,1074.0750
46.6700,1105.1350
46.6800,1084.3400
46.6900,1030.9375
46.7000,999.9175
46.7100,960.8175
46.7200,976.1400
46.7300,1019.9225
46.7400,967.2600
46.7500,887.6525
46.7600,873.6800
46.7700,890.0000
46.7800,883.2050
46.7900,883.4575
46.8000,864.5500
46.8100,812.8725
46.8200,761.2525
46.8300,729.8950
46.8400,723.3325
46.8500,738.5525
46.8600,697.5725
46.8700,612.9375
46.8800,600.2075
46.8900,606.5500
46.9000,589.9250
46.9100,579.9650
46.9200,561.5200
46.9300,519.7600
46.9400,489.9725
46.9500,466.5125
46.9600,471.8425
46.9700,515.1150
46.9800,518.2475
46.9900,483.2350
47.0000,448.2700
47.0100,451.7325
47.0200,470.0000
47.0300,454.9650
47.0400,458.3625
47.0500,474.9975
47.0600,453.3275
47.0700,463.3200
47.0800,494.9975
47.0900,499.9950
47.1000,491.6950
47.1100,463.3850
47.1200,443.3450
47.1300,436.6825
47.1400,451.5750
47.1500,486.5725
47.1600,500.0200
47.1700,478.4625
47.1800,441.8075
47.1900,451.4300
47.2000,486.6075
47.2100,481.7800
47.2200,463.4025
47.2300,440.1825
47.2400,439.8075
47.2500,433.6200
47.2600,393.5475
47.2700,376.6675
47.2800,394.7400
47.2900,398.5550
47.3000,371.8475
47.3100,382.9575
47.3200,427.9700
47.3300,435.2625
47.3400,415.0900
47.3500,444.3450
47.3600,466.9250
47.3700,427.2000
47.3800,404.8975
47.3900,410.0000
47.4000,393.6975
47.4100,397.8450
47.4200,413.4875
47.4300,413.1750
47.4400,408.6175
47.4500,401.5425
47.4600,408.2900
47.4700,380.7900
47.4800,377.5700
47.4900,413.1500
47.5000,403.8025
47.5100,397.9975
47.5200,424.5575
47.5300,446.4675
47.5400,456.5650
47.5500,458.3850
47.5600,459.8925
47.5700,466.5575
47.5800,455.4975
47.5900,433.5575
47.6000,428.2750
47.6100,433.2175
47.6200,427.0225
47.6300,432.7300
47.6400,446.7900
47.6500,432.1025
47.6600,450.4625
47.6700,505.7650
47.6800,510.7850
47.6900,491.6000
47.7000,510.9250
47.7100,552.3750
47.7200,595.8325
47.7300,621.4550
47.7400,644.2150
47.7500,687.2475
47.7600,746.7900
47.7700,794.4800
47.7800,778.0250
47.7900,786.4225
47.8000,818.8750
47.8100,808.2550
47.8200,836.9825
47.8300,853.9775
47.8400,835.2450
47.8500,868.0225
47.8600,886.2500
47.8700,833.1000
47.8800,776.4500
47.8900,743.5050
47.9000,738.4200
47.9100,731.9325
47.9200,734.5550
47.9300,748.0625
47.9400,740.7300
47.9500,710.9200
47.9600,668.1550
47.9700,641.5725
47.9800,633.9025
47.9900,639.0400
48.0000,626.8425
48.0100,572.9400
48.0200,532.7550
48.0300,518.0350
48.0400,502.9775
48.0500,486.2600
48.0600,501.1525
48.0700,484.9900
48.0800,464.4775
48.0900,484.2625
48.1000,493.5450
48.1100,494.6775
48.1200,490.6500
48.1300,464.4250
48.1400,456.0050
48.1500,452.6675
48.1600,428.8925
48.1700,443.3050
48.1800,446.7100
48.1900,415.3450
48.2000,425.5100
48.2100,452.6325
48.2200,474.1775
48.2300,477.3775
48.2400,472.8550
48.2500,449.0750
48.2600,424.1500
48.2700,432.0325
48.2800,431.2975
48.2900,432.0400
48.3000,443.6250
48.3100,467.9550
48.3200,482.5725
48.3300,521.0350
48.3400,550.2575
48.3500,532.8325
48.3600,505.9125
48.3700,479.5150
48.3800,477.1425
48.3900,493.3325
48.4000,497.9325
48.4100,529.3725
48.4200,563.0625
48.4300,534.5375
48.4400,545.5975
48.4500,601.8050
48.4600,569.4550
48.4700,557.7550
48.4800,588.1925
48.4900,600.6725
48.5000,633.1425
48.5100,682.5550
48.5200,739.2075
48.5300,742.6200
48.5400,728.2425
48.5500,730.2475
48.5600,676.2975
48.5700,646.0700
48.5800,648.7825
48.5900,661.5250
48.6000,681.8175
48.6100,669.4000
48.6200,629.4275
48.6300,599.6925
48.6400,601.8225
48.6500,621.1500
48.6600,592.3100
48.6700,552.3200
48.6800,554.6775
48.6900,538.0875
48.7000,529.8700
48.7100,476.7725
48.7200,473.2200
48.7300,482.8050
48.7400,462.4850
48.7500,456.3375
48.7600,479.5175
48.7700,491.3300
48.7800,467.6675
48.7900,467.1600
48.8000,468.0150
48.8100,423.3900
48.8200,385.1700
48.8300,398.2900
48.8400,412.1825
48.8500,409.6550
48.8600,413.3325
48.8700,404.3800
48.8800,369.4700
48.8900,386.2075
48.9000,447.8025
48.9100,438.4450
48.9200,430.4175
48.9300,435.8975
48.9400,425.1800
48.9500,447.1050
48.9600,473.6975
48.9700,477.4200
48.9800,485.1825
48.9900,514.4650
49.0000,553.3325
49.0100,526.6775
49.0200,506.6525
49.0300,548.4800
49.0400,590.3500
49.0500,594.4675
49.0600,620.2550
49.0700,697.6625
49.0800,723.3900
49.0900,697.8200
49.1000,673.4050
49.1100,680.2325
49.1200,727.6650
49.1300,722.0450
49.1400,713.1350
49.1500,724.6200
49.1600,681.9775
49.1700,675.0775
49.1800,703.2075
49.1900,727.3325
49.2000,714.6800
49.2100,708.6425
49.2200,705.9175
49.2300,693.0100
49.2400,723.7400
49.2500,730.2325
49.2600,746.2550
49.2700,748.5400
49.2800,749.5850
49.2900,702.2725
49.3000,626.4600
49.3100,608.9625
49.3200,607.7025
49.3300,632.2600
49.3400,661.0325
49.3500,689.9350
49.3600,721.4525
49.3700,716.0700
49.3800,696.5025
49.3900,703.6525
49.4000,745.9550
49.4100,749.2700
49.4200,725.2175
49.4300,732.0225
49.4400,734.6475
49.4500,704.5250
49.4600,678.5550
49.4700,691.1200
49.4800,723.0025
49.4900,742.8875
49.5000,733.6775
49.5100,722.4375
49.5200,750.1825
49.5300,763.6975
49.5400,748.1075
49.5500,744.2425
49.5600,725.1575
49.5700,679.8025
49.5800,628.5025
49.5900,624.8250
49.6000,645.7425
49.6100,637.5475
49.6200,603.7575
49.6300,615.3400
49.6400,671.9625
49.6500,668.0200
49.6600,638.5900
49.6700,655.7225
49.6800,664.7625
49.6900,638.0775
49.7000,600.0000
49.7100,612.8525
49.7200,615.7275
49.7300,619.4925
49.7400,624.3325
49.7500,585.7250
49.7600,550.0850
49.7700,517.1200
49.7800,516.7050
49.7900,516.1350
49.8000,551.8150
49.8100,569.5625
49.8200,567.1025
49.8300,576.6675
49.8400,575.2475
49.8500,554.8950
49.8600,505.9000
49.8700,484.6675
49.8800,511.3300
49.8900,533.7450
49.9000,515.0350
49.9100,465.3525
49.9200,471.2025
49.9300,495.7625
49.9400,467.4050
49.9500,442.3125
49.9600,440.1250
49.9700,444.9975
49.9800,470.0000
49.9900,470.0000
50.0000,470.0000
