#Intensity_unit=cps
#Attenuator_coefficient=1.0000
10.0000,738.2175
10.0100,879.6225
10.0200,817.4800
10.0300,785.7375
10.0400,725.7300
10.0500,798.7975
10.0600,855.1375
10.0700,850.9150
10.0800,777.3500
10.0900,766.9750
10.1000,709.1950
10.1100,836.3725
10.1200,846.9775
10.1300,792.2850
10.1400,771.5675
10.1500,766.9800
10.1600,787.7900
10.1700,799.0500
10.1800,796.9850
10.1900,823.7950
10.2000,802.5625
10.2100,806.0225
10.2200,857.8475
10.2300,773.0525
10.2400,814.4725
10.2500,762.8675
10.2600,804.7600
10.2700,882.1100
10.2800,865.9725
10.2900,851.3250
10.3000,816.9900
10.3100,816.3325
10.3200,798.6750
10.3300,742.7150
10.3400,790.5975
10.3500,805.6525
10.3600,797.6850
10.3700,796.6675
10.3800,823.5875
10.3900,817.6975
10.4000,807.7000
10.4100,782.7650
10.4200,794.9325
10.4300,760.8450
10.4400,786.5050
10.4500,760.1725
10.4600,783.5000
10.4700,777.7250
10.4800,779.6450
10.4900,732.3575
10.5000,839.7725
10.5100,826.5550
10.5200,740.0600
10.5300,744.8650
10.5400,728.8375
10.5500,774.1900
10.5600,791.8750
10.5700,725.0750
10.5800,725.5650
10.5900,780.0425
10.6000,762.9550
10.6100,730.3725
10.6200,762.2050
10.6300,748.9050
10.6400,755.5425
10.6500,821.7375
10.6600,838.8700
10.6700,798.6275
10.6800,746.0700
10.6900,796.1000
10.7000,829.8950
10.7100,786.1325
10.7200,777.0500
10.7300,729.5050
10.7400,743.9575
10.7500,776.1175
10.7600,724.0700
10.7700,751.9750
10.7800,818.4300
10.7900,785.5075
10.8000,735.9225
10.8100,753.4975
10.8200,700.8825
10.8300,672.7900
10.8400,708.1350
10.8500,766.1125
10.8600,782.1250
10.8700,792.1225
10.8800,723.0550
10.8900,751.3825
10.9000,818.1050
10.9100,730.1650
10.9200,748.8200
10.9300,750.4125
10.9400,729.5575
10.9500,741.2625
10.9600,734.5800
10.9700,739.1650
10.9800,757.4900
10.9900,792.0525
11.0000,817.0550
11.0100,744.3100
11.0200,765.3425
11.0300,804.9025
11.0400,751.8550
11.0500,708.4625
11.0600,729.4750
11.0700,765.2700
11.0800,764.1950
11.0900,760.4325
11.1000,771.5975
11.1100,764.6400
11.1200,716.9875
11.1300,724.4750
11.1400,796.1200
11.1500,751.7075
11.1600,749.1150
11.1700,738.4400
11.1800,765.5525
11.1900,775.7750
11.2000,756.4650
11.2100,779.2925
11.2200,766.0350
11.2300,740.2800
11.2400,774.1125
11.2500,780.0000
11.2600,733.9575
11.2700,732.4200
11.2800,718.9575
11.2900,777.0125
11.3000,780.9225
11.3100,768.5175
11.3200,772.4050
11.3300,790.5425
11.3400,799.0675
11.3500,768.4800
11.3600,697.4625
11.3700,743.9200
11.3800,730.4425
11.3900,698.0675
11.4000,661.8900
11.4100,736.6650
11.4200,787.1250
11.4300,724.8300
11.4400,739.0100
11.4500,777.5525
11.4600,751.9825
11.4700,746.6675
11.4800,769.4450
11.4900,733.4900
11.5000,783.5575
11.5100,708.0375
11.5200,716.0675
11.5300,745.5625
11.5400,704.5750
11.5500,750.5800
11.5600,791.1975
11.5700,731.4675
11.5800,663.3325
11.5900,718.4675
11.6000,741.3225
11.6100,686.7500
11.6200,721.9100
11.6300,749.7850
11.6400,758.9825
11.6500,754.3525
11.6600,750.5125
11.6700,716.1525
11.6800,741.0100
11.6900,735.3950
11.7000,738.9650
11.7100,720.2950
11.7200,747.6150
11.7300,739.2725
11.7400,736.6675
11.7500,722.6200
11.7600,759.3075
11.7700,704.9275
11.7800,673.7000
11.7900,714.8550
11.8000,770.9675
11.8100,757.5950
11.8200,730.9400
11.8300,793.8100
11.8400,761.9275
11.8500,742.1550
11.8600,776.3125
11.8700,774.9575
11.8800,756.5900
11.8900,717.0775
11.9000,698.8500
11.9100,718.9550
11.9200,790.1625
11.9300,769.9350
11.9400,716.0450
11.9500,709.4475
11.9600,735.0075
11.9700,781.6600
11.9800,737.2600
11.9900,707.2475
12.0000,714.4250
12.0100,730.5225
12.0200,719.4850
12.0300,736.0450
12.0400,676.3600
12.0500,704.8150
12.0600,702.2775
12.0700,625.4125
12.0800,645.8925
12.0900,744.3975
12.1000,732.9950
12.1100,726.6675
12.1200,688.0950
12.1300,713.0425
12.1400,703.4875
12.1500,666.9925
12.1600,670.9975
12.1700,665.0900
12.1800,690.7950
12.1900,644.5175
12.2000,693.6825
12.2100,745.0500
12.2200,720.4525
12.2300,699.6400
12.2400,715.8275
12.2500,722.7350
12.2600,709.6625
12.2700,679.3400
12.2800,659.6775
12.2900,670.3150
12.3000,700.6150
12.3100,712.1200
12.3200,740.5825
12.3300,754.8375
12.3400,724.0025
12.3500,697.6225
12.3600,720.5225
12.3700,718.5150
12.3800,713.9500
12.3900,699.7625
12.4000,767.2000
12.4100,826.7150
12.4200,817.6975
12.4300,751.0450
12.4400,763.7325
12.4500,810.5775
12.4600,874.0725
12.4700,902.8800
12.4800,868.8600
12.4900,881.5925
12.5000,981.0775
12.5100,1070.7300
12.5200,1135.1650
12.5300,1189.7525
12.5400,1213.4550
12.5500,1291.9775
12.5600,1347.6350
12.5700,1410.3975
12.5800,1380.3725
12.5900,1300.2300
12.6000,1438.8850
12.6100,1500.7900
12.6200,1458.4475
12.6300,1393.1225
12.6400,1329.1625
12.6500,1335.3850
12.6600,1254.4775
12.6700,1190.5975
12.6800,1180.0000
12.6900,1166.6600
12.7000,1067.3475
12.7100,1104.6200
12.7200,1191.9050
12.7300,1199.3550
12.7400,1143.4675
12.7500,1209.7500
12.7600,1285.7925
12.7700,1315.9325
12.7800,1436.7600
12.7900,1530.3150
12.8000,1581.1225
12.8100,1582.0525
12.8200,1601.1775
12.8300,1580.2100
12.8400,1583.9100
12.8500,1602.5225
12.8600,1559.1300
12.8700,1485.9625
12.8800,1470.0000
12.8900,1396.1900
12.9000,1318.7075
12.9100,1190.1175
12.9200,1120.5300
12.9300,1125.7775
12.9400,1059.0425
12.9500,963.8325
12.9600,932.8350
12.9700,987.7125
12.9800,929.9275
12.9900,917.8600
13.0000,982.8425
13.0100,921.4950
13.0200,873.8475
13.0300,989.5050
13.0400,1036.3925
13.0500,1053.0525
13.0600,1009.7100
13.0700,1030.5600
13.0800,1068.6600
13.0900,956.8900
13.1000,912.9250
13.1100,902.1975
13.1200,858.4175
13.1300,849.2650
13.1400,777.3200
13.1500,772.2300
13.1600,797.4050
13.1700,769.6525
13.1800,741.8750
13.1900,741.8425
13.2000,717.4750
13.2100,691.9100
13.2200,658.2575
13.2300,673.2275
13.2400,747.0600
13.2500,704.8050
13.2600,704.6975
13.2700,661.0875
13.2800,667.2475
13.2900,717.0400
13.3000,688.8900
13.3100,676.6675
13.3200,699.7600
13.3300,709.2300
13.3400,663.8700
13.3500,652.5600
13.3600,625.1800
13.3700,657.5900
13.3800,728.7900
13.3900,713.4600
13.4000,672.7000
13.4100,658.2300
13.4200,694.9075
13.4300,696.4750
13.4400,637.3200
13.4500,632.7225
13.4600,646.8375
13.4700,680.4925
13.4800,687.4600
13.4900,671.4400
13.5000,671.7375
13.5100,625.1825
13.5200,625.1950
13.5300,642.6550
13.5400,666.9000
13.5500,693.5525
13.5600,727.7850
13.5700,703.8525
13.5800,680.7200
13.5900,643.8975
13.6000,618.2200
13.6100,628.4375
13.6200,645.9125
13.6300,642.4575
13.6400,680.1950
13.6500,683.2900
13.6600,667.4550
13.6700,658.3200
13.6800,624.0950
13.6900,668.4150
13.7000,669.1525
13.7100,650.8325
13.7200,694.1400
13.7300,702.5100
13.7400,670.0575
13.7500,627.5850
13.7600,624.1425
13.7700,631.6475
13.7800,618.4025
13.7900,610.8475
13.8000,607.5150
13.8100,643.9125
13.8200,676.5175
13.8300,670.9350
13.8400,639.4100
13.8500,582.9525
13.8600,618.6300
13.8700,644.0850
13.8800,631.8400
13.8900,621.7275
13.9000,595.3250
13.9100,613.7900
13.9200,633.1900
13.9300,651.4400
13.9400,629.6000
13.9500,629.8350
13.9600,648.0750
13.9700,677.8875
13.9800,686.6675
13.9900,652.3400
14.0000,608.1475
14.0100,613.8050
14.0200,649.3600
14.0300,647.7750
14.0400,611.5725
14.0500,631.7375
14.0600,650.6525
14.0700,626.5175
14.0800,648.3350
14.0900,684.3425
14.1000,666.5750
14.1100,656.6675
14.1200,680.9575
14.1300,677.8625
14.1400,644.2275
14.1500,592.1300
14.1600,608.1525
14.1700,634.5200
14.1800,681.1125
14.1900,696.6675
14.2000,641.1250
14.2100,610.3475
14.2200,633.1900
14.2300,624.0575
14.2400,640.7450
14.2500,637.9700
14.2600,650.1625
14.2700,627.8375
14.2800,599.8625
14.2900,588.5350
14.3000,603.4450
14.3100,657.9050
14.3200,643.1575
14.3300,618.0425
14.3400,630.0625
14.3500,634.2775
14.3600,614.2425
14.3700,647.2025
14.3800,660.9500
14.3900,600.4775
14.4000,607.5950
14.4100,622.3775
14.4200,594.8275
14.4300,599.9500
14.4400,642.2450
14.4500,614.0050
14.4600,582.4575
14.4700,602.6975
14.4800,684.2725
14.4900,668.4400
14.5000,609.8625
14.5100,612.2075
14.5200,624.7150
14.5300,574.8450
14.5400,574.5175
14.5500,580.9825
14.5600,624.6525
14.5700,666.8175
14.5800,639.1225
14.5900,625.6775
14.6000,640.7225
14.6100,679.4400
14.6200,695.6725
14.6300,670.9550
14.6400,652.9925
14.6500,593.9925
14.6600,581.6600
14.6700,609.9675
14.6800,645.6100
14.6900,610.1400
14.7000,622.5425
14.7100,634.3450
14.7200,617.0875
14.7300,614.6375
14.7400,646.7900
14.7500,653.0550
14.7600,633.8050
14.7700,610.4850
14.7800,582.5450
14.7900,621.8000
14.8000,631.8025
14.8100,642.7950
14.8200,670.7200
14.8300,661.5950
14.8400,639.5425
14.8500,647.1150
14.8600,648.7425
14.8700,623.7350
14.8800,629.3725
14.8900,677.8750
14.9000,710.3925
14.9100,707.5250
14.9200,678.2125
14.9300,710.0225
14.9400,727.7200
14.9500,749.4475
14.9600,741.7900
14.9700,683.2950
14.9800,744.0850
14.9900,812.8525
15.0000,769.9475
15.0100,779.6050
15.0200,814.7875
15.0300,845.9650
15.0400,858.9275
15.0500,882.5950
15.0600,895.5900
15.0700,885.3875
15.0800,855.2075
15.0900,924.4000
15.1000,931.8325
15.1100,916.6675
15.1200,990.7925
15.1300,988.5125
15.1400,981.2125
15.1500,944.0975
15.1600,1006.1625
15.1700,1046.6675
15.1800,999.7350
15.1900,923.0750
15.2000,916.7450
15.2100,955.6450
15.2200,972.2275
15.2300,959.9800
15.2400,946.6625
15.2500,954.4400
15.2600,931.1450
15.2700,839.0450
15.2800,775.6250
15.2900,809.8250
15.3000,859.8775
15.3100,877.7525
15.3200,831.4200
15.3300,819.9050
15.3400,786.9875
15.3500,788.6900
15.3600,788.9975
15.3700,787.7300
15.3800,750.4600
15.3900,736.5850
15.4000,700.5300
15.4100,745.7275
15.4200,780.0000
15.4300,745.0075
15.4400,731.0375
15.4500,713.6850
15.4600,672.7950
15.4700,626.1550
15.4800,601.2900
15.4900,614.0700
15.5000,629.8550
15.5100,635.5050
15.5200,625.8175
15.5300,604.8250
15.5400,603.1650
15.5500,617.4850
15.5600,595.2275
15.5700,545.4400
15.5800,604.3550
15.5900,597.0775
15.6000,572.1550
15.6100,590.5500
15.6200,587.0975
15.6300,573.5550
15.6400,548.5375
15.6500,555.9675
15.6600,579.5225
15.6700,565.2625
15.6800,529.8100
15.6900,540.1700
15.7000,583.2175
15.7100,595.7350
15.7200,625.2950
15.7300,647.5900
15.7400,613.8450
15.7500,601.8325
15.7600,610.9125
15.7700,592.1250
15.7800,616.0225
15.7900,645.1350
15.8000,565.4000
15.8100,546.2500
15.8200,544.3325
15.8300,522.7875
15.8400,533.5225
15.8500,577.0150
15.8600,579.8425
15.8700,542.6850
15.8800,530.8650
15.8900,537.5275
15.9000,560.9525
15.9100,587.9875
15.9200,579.9375
15.9300,570.0000
15.9400,572.0875
15.9500,552.4800
15.9600,554.5825
15.9700,569.5775
15.9800,560.8575
15.9900,528.4050
16.0000,548.6150
16.0100,520.2375
16.0200,481.7150
16.0300,524.2625
16.0400,551.2650
16.0500,583.0475
16.0600,599.2075
16.0700,565.7450
16.0800,548.7250
16.0900,537.6550
16.1000,532.0550
16.1100,529.2275
16.1200,532.8200
16.1300,555.1125
16.1400,546.1925
16.1500,537.4250
16.1600,601.3025
16.1700,613.4625
16.1800,592.5875
16.1900,581.8500
16.2000,521.7125
16.2100,527.3325
16.2200,549.2700
16.2300,516.2275
16.2400,527.0750
16.2500,540.5900
16.2600,550.8300
16.2700,564.0425
16.2800,572.7250
16.2900,554.4775
16.3000,529.9250
16.3100,513.2675
16.3200,502.6450
16.3300,542.1900
16.3400,576.0200
16.3500,588.0200
16.3600,591.3300
16.3700,567.9900
16.3800,559.3300
16.3900,585.3000
16.4000,588.0300
16.4100,570.0350
16.4200,563.3325
16.4300,569.3000
16.4400,557.4400
16.4500,540.7125
16.4600,572.3550
16.4700,620.4350
16.4800,608.9675
16.4900,558.3750
16.5000,554.4375
16.5100,558.7775
16.5200,569.0975
16.5300,546.5375
16.5400,489.9075
16.5500,486.3100
16.5600,537.2800
16.5700,559.4125
16.5800,564.5000
16.5900,593.4725
16.6000,588.5075
16.6100,569.4300
16.6200,543.2675
16.6300,551.9875
16.6400,562.2175
16.6500,546.9475
16.6600,563.3000
16.6700,556.7250
16.6800,530.3125
16.6900,558.1700
16.7000,567.8675
16.7100,529.6300
16.7200,511.9300
16.7300,532.6050
16.7400,560.1425
16.7500,581.5375
16.7600,578.4750
16.7700,571.9200
16.7800,600.1675
16.7900,608.5125
16.8000,569.3975
16.8100,539.0250
16.8200,525.7000
16.8300,552.4075
16.8400,593.8050
16.8500,604.7650
16.8600,553.9300
16.8700,529.9525
16.8800,572.2300
16.8900,583.4100
16.9000,586.5750
16.9100,568.3225
16.9200,544.7800
16.9300,569.7300
16.9400,569.2825
16.9500,534.5200
16.9600,531.2750
16.9700,530.6150
16.9800,549.5825
16.9900,577.4925
17.0000,566.4950
17.0100,517.8275
17.0200,493.7325
17.0300,505.9900
17.0400,526.3700
17.0500,534.8075
17.0600,518.4675
17.0700,502.9550
17.0800,514.8325
17.0900,522.9625
17.1000,523.7000
17.1100,513.7325
17.1200,501.4875
17.1300,507.3750
17.1400,511.4925
17.1500,521.0350
17.1600,513.4650
17.1700,512.8450
17.1800,534.3300
17.1900,536.0100
17.2000,557.4300
17.2100,589.1325
17.2200,576.5975
17.2300,536.3100
17.2400,516.6675
17.2500,543.9375
17.2600,530.3475
17.2700,552.6000
17.2800,574.9275
17.2900,553.0475
17.3000,517.4675
17.3100,499.0275
17.3200,544.5325
17.3300,569.4625
17.3400,521.9600
17.3500,520.8050
17.3600,541.0275
17.3700,506.4450
17.3800,497.6550
17.3900,510.0000
17.4000,531.4325
17.4100,541.0800
17.4200,515.5150
17.4300,508.8975
17.4400,518.4450
17.4500,523.5500
17.4600,565.6775
17.4700,568.1200
17.4800,547.0750
17.4900,540.9650
17.5000,554.7050
17.5100,557.2800
17.5200,554.0825
17.5300,564.9075
17.5400,544.0175
17.5500,530.1750
17.5600,526.3275
17.5700,521.7500
17.5800,535.5650
17.5900,529.2150
17.6000,535.9925
17.6100,528.8125
17.6200,512.0275
17.6300,507.8425
17.6400,494.9325
17.6500,531.4450
17.6600,570.1275
17.6700,580.2450
17.6800,548.7000
17.6900,523.6750
17.7000,543.6625
17.7100,541.2975
17.7200,512.8275
17.7300,513.8150
17.7400,504.3075
17.7500,471.4475
17.7600,514.5875
17.7700,570.1575
17.7800,525.5450
17.7900,474.9650
17.8000,502.2300
17.8100,543.5800
17.8200,568.5350
17.8300,563.0675
17.8400,544.9750
17.8500,553.4675
17.8600,563.3325
17.8700,533.0125
17.8800,494.9225
17.8900,495.0675
17.9000,516.7575
17.9100,494.8100
17.9200,480.0825
17.9300,511.7000
17.9400,498.2950
17.9500,523.3425
17.9600,581.6575
17.9700,548.4350
17.9800,490.0625
17.9900,473.3325
18.0000,511.4200
18.0100,543.3850
18.0200,493.7250
18.0300,474.7400
18.0400,519.7675
18.0500,531.7750
18.0600,520.0475
18.0700,513.3850
18.0800,519.8300
18.0900,530.0000
18.1000,508.7575
18.1100,493.1925
18.1200,501.6300
18.1300,519.6075
18.1400,502.5400
18.1500,495.8800
18.1600,523.4250
18.1700,521.6175
18.1800,541.1125
18.1900,555.1575
18.2000,543.5525
18.2100,517.3500
18.2200,506.3100
18.2300,507.0350
18.2400,506.2850
18.2500,518.2675
18.2600,529.5925
18.2700,520.8450
18.2800,507.9700
18.2900,551.6875
18.3000,556.6175
18.3100,529.5250
18.3200,563.7775
18.3300,564.6725
18.3400,509.7950
18.3500,495.7850
18.3600,533.8250
18.3700,553.5175
18.3800,531.1375
18.3900,520.9875
18.4000,534.9000
18.4100,550.7525
18.4200,576.0450
18.4300,574.1825
18.4400,586.4925
18.4500,663.3525
18.4600,702.6800
18.4700,705.2875
18.4800,756.1075
18.4900,800.8300
18.5000,811.7875
18.5100,802.2875
18.5200,794.8750
18.5300,828.9700
18.5400,875.8825
18.5500,889.7350
18.5600,881.0800
18.5700,892.6650
18.5800,901.9550
18.5900,875.1425
18.6000,861.1525
18.6100,828.4225
18.6200,817.2925
18.6300,802.7175
18.6400,751.8375
18.6500,739.0675
18.6600,754.5275
18.6700,756.9875
18.6800,766.8725
18.6900,784.8350
18.7000,782.1675
18.7100,773.6725
18.7200,781.9625
18.7300,787.7075
18.7400,745.3575
18.7500,728.9975
18.7600,768.5575
18.7700,817.4675
18.7800,824.4350
18.7900,757.8075
18.8000,696.0225
18.8100,668.0850
18.8200,680.7750
18.8300,657.1575
18.8400,627.8575
18.8500,606.4050
18.8600,577.2325
18.8700,543.5150
18.8800,535.4225
18.8900,552.4950
18.9000,526.5450
18.9100,481.8800
18.9200,513.3500
18.9300,542.1900
18.9400,517.5525
18.9500,524.4325
18.9600,502.9875
18.9700,470.1400
18.9800,492.3575
18.9900,505.3100
19.0000,521.4100
19.0100,510.0000
19.0200,497.1550
19.0300,482.8500
19.0400,493.7800
19.0500,494.8125
19.0600,462.0625
19.0700,450.3225
19.0800,500.1900
19.0900,498.5650
19.1000,463.5725
19.1100,495.1050
19.1200,503.8575
19.1300,498.5975
19.1400,513.4625
19.1500,533.8725
19.1600,489.5425
19.1700,458.4025
19.1800,489.1625
19.1900,501.3800
19.2000,504.4925
19.2100,467.8000
19.2200,477.9575
19.2300,504.7125
19.2400,479.1325
19.2500,453.7425
19.2600,469.2175
19.2700,459.2250
19.2800,473.8450
19.2900,504.6975
19.3000,484.8625
19.3100,457.4150
19.3200,466.0500
19.3300,475.4225
19.3400,483.3325
19.3500,471.1725
19.3600,472.2175
19.3700,487.8800
19.3800,486.1325
19.3900,526.1025
19.4000,519.1875
19.4100,477.3450
19.4200,487.3375
19.4300,490.6675
19.4400,469.3725
19.4500,467.2375
19.4600,496.7050
19.4700,482.6975
19.4800,480.6300
19.4900,478.7550
19.5000,475.8825
19.5100,475.5450
19.5200,441.5275
19.5300,433.8100
19.5400,500.9775
19.5500,563.0375
19.5600,510.6175
19.5700,463.5000
19.5800,468.9075
19.5900,514.0600
19.6000,528.5625
19.6100,502.5825
19.6200,489.9175
19.6300,478.7675
19.6400,518.7375
19.6500,533.0825
19.6600,488.5275
19.6700,465.0375
19.6800,494.9025
19.6900,484.1225
19.7000,473.6525
19.7100,455.7300
19.7200,457.2475
19.7300,476.2125
19.7400,462.4375
19.7500,442.4525
19.7600,446.3225
19.7700,480.8525
19.7800,497.0850
19.7900,484.6050
19.8000,470.7800
19.8100,477.6100
19.8200,449.9325
19.8300,486.4925
19.8400,527.4200
19.8500,532.5925
19.8600,510.1425
19.8700,487.1850
19.8800,498.7600
19.8900,531.7675
19.9000,511.1075
19.9100,491.2200
19.9200,509.1675
19.9300,541.5300
19.9400,556.0675
19.9500,581.1975
19.9600,632.0450
19.9700,704.4075
19.9800,768.9825
19.9900,819.4950
20.0000,857.6025
20.0100,843.7600
20.0200,895.9375
20.0300,1027.1525
20.0400,1031.6725
20.0500,1016.6675
20.0600,1036.8100
20.0700,1050.8650
20.0800,1021.8000
20.0900,1033.9125
20.1000,1008.4400
20.1100,996.8525
20.1200,992.7975
20.1300,968.6600
20.1400,960.0000
20.1500,925.0950
20.1600,856.5175
20.1700,843.0475
20.1800,826.5300
20.1900,846.5425
20.2000,881.6950
20.2100,856.7800
20.2200,857.6000
20.2300,838.6550
20.2400,838.1800
20.2500,843.8725
20.2600,784.0775
20.2700,763.5475
20.2800,783.3325
20.2900,810.4575
20.3000,853.1825
20.3100,804.0750
20.3200,739.9300
20.3300,728.9075
20.3400,726.6250
20.3500,701.0600
20.3600,664.4200
20.3700,618.8900
20.3800,561.1450
20.3900,532.2125
20.4000,532.2525
20.4100,521.1300
20.4200,490.2900
20.4300,443.2475
20.4400,458.8550
20.4500,458.9650
20.4600,468.5200
20.4700,505.5800
20.4800,506.5875
20.4900,486.2775
20.5000,448.3575
20.5100,482.3575
20.5200,457.2075
20.5300,435.1325
20.5400,467.4925
20.5500,491.8750
20.5600,505.7375
20.5700,481.7850
20.5800,455.3025
20.5900,474.0750
20.6000,479.4425
20.6100,468.2525
20.6200,512.2500
20.6300,532.3625
20.6400,478.2975
20.6500,455.8250
20.6600,463.3275
20.6700,504.1550
20.6800,520.5875
20.6900,519.0875
20.7000,462.4625
20.7100,435.6850
20.7200,466.4125
20.7300,496.8950
20.7400,534.6700
20.7500,496.9425
20.7600,493.0525
20.7700,505.0725
20.7800,530.8375
20.7900,575.4525
20.8000,606.3550
20.8100,607.3025
20.8200,587.3175
20.8300,596.3375
20.8400,661.9725
20.8500,717.8675
20.8600,782.3400
20.8700,774.0575
20.8800,762.9650
20.8900,780.8425
20.9000,798.8025
20.9100,789.8075
20.9200,801.5950
20.9300,786.9950
20.9400,815.1325
20.9500,806.2475
20.9600,802.6800
20.9700,768.9375
20.9800,758.6725
20.9900,762.6975
21.0000,709.4525
21.0100,689.0725
21.0200,709.0575
21.0300,712.8675
21.0400,679.0750
21.0500,662.8400
21.0600,690.7725
21.0700,716.9650
21.0800,671.6025
21.0900,721.9825
21.1000,729.6225
21.1100,772.5450
21.1200,744.0375
21.1300,720.0000
21.1400,702.4325
21.1500,667.7325
21.1600,712.3025
21.1700,733.1525
21.1800,663.5325
21.1900,609.9650
21.2000,587.8825
21.2100,599.0925
21.2200,591.2375
21.2300,569.4450
21.2400,549.1000
21.2500,564.6200
21.2600,616.9150
21.2700,632.0225
21.2800,664.4725
21.2900,708.8950
21.3000,700.2075
21.3100,745.3175
21.3200,844.2150
21.3300,867.7400
21.3400,952.9325
21.3500,1038.0175
21.3600,1100.4725
21.3700,1203.1625
21.3800,1280.3000
21.3900,1402.0600
21.4000,1517.9675
21.4100,1589.1825
21.4200,1724.6850
21.4300,1885.2800
21.4400,1937.8700
21.4500,1996.7875
21.4600,1978.5975
21.4700,1913.9050
21.4800,2071.8375
21.4900,2130.8600
21.5000,2146.6775
21.5100,2168.3375
21.5200,2220.7875
21.5300,2293.2225
21.5400,2371.5100
21.5500,2418.4300
21.5600,2407.2950
21.5700,2476.2025
21.5800,2561.5650
21.5900,2588.0600
21.6000,2675.2625
21.6100,2832.6225
21.6200,2799.0325
21.6300,2701.9800
21.6400,2604.9375
21.6500,2604.4075
21.6600,2552.4175
21.6700,2400.4550
21.6800,2275.9975
21.6900,2318.2450
21.7000,2267.4850
21.7100,2088.2350
21.7200,2083.1725
21.7300,2034.4175
21.7400,1974.7900
21.7500,1911.8275
21.7600,1814.4150
21.7700,1855.6425
21.7800,1794.3675
21.7900,1758.3900
21.8000,1649.6225
21.8100,1581.3150
21.8200,1480.9375
21.8300,1366.1800
21.8400,1257.5450
21.8500,1207.0800
21.8600,1205.0650
21.8700,1134.7250
21.8800,1066.2900
21.8900,1052.5950
21.9000,1047.7900
21.9100,1046.6100
21.9200,1048.0450
21.9300,941.5550
21.9400,863.2600
21.9500,965.5000
21.9600,1032.6125
21.9700,1028.5625
21.9800,1029.7850
21.9900,1042.6175
22.0000,999.7750
22.0100,991.6325
22.0200,997.2775
22.0300,940.8425
22.0400,913.6850
22.0500,934.4050
22.0600,920.3025
22.0700,948.0550
22.0800,938.8050
22.0900,888.8475
22.1000,904.5050
22.1100,891.5450
22.1200,906.9700
22.1300,828.3875
22.1400,787.5975
22.1500,875.5475
22.1600,941.9375
22.1700,891.9300
22.1800,834.0025
22.1900,893.9850
22.2000,925.8825
22.2100,991.3175
22.2200,998.6375
22.2300,999.4700
22.2400,970.6525
22.2500,977.8775
22.2600,996.6675
22.2700,992.1575
22.2800,986.1675
22.2900,1048.3100
22.3000,1116.4375
22.3100,1279.4950
22.3200,1405.0875
22.3300,1543.0225
22.3400,1633.3825
22.3500,1748.0825
22.3600,1876.2150
22.3700,1905.8100
22.3800,1939.4750
22.3900,2051.6650
22.4000,2099.6650
22.4100,2082.7250
22.4200,2072.7225
22.4300,2039.3950
22.4400,2028.8500
22.4500,1990.3400
22.4600,1989.1875
22.4700,2039.5425
22.4800,1984.7900
22.4900,1889.8100
22.5000,1910.6200
22.5100,1863.7475
22.5200,1848.8375
22.5300,1824.2400
22.5400,1742.5500
22.5500,1788.3875
22.5600,1769.2575
22.5700,1639.5100
22.5800,1666.3500
22.5900,1721.5500
22.6000,1673.2700
22.6100,1624.3650
22.6200,1555.0050
22.6300,1583.9400
22.6400,1495.7675
22.6500,1348.6650
22.6600,1206.9625
22.6700,1106.4950
22.6800,1015.1350
22.6900,978.7000
22.7000,897.5075
22.7100,764.0100
22.7200,677.3475
22.7300,644.3275
22.7400,532.3000
22.7500,483.7900
22.7600,537.9200
22.7700,514.7575
22.7800,453.0925
22.7900,473.5875
22.8000,495.3750
22.8100,505.6525
22.8200,497.4750
22.8300,480.8200
22.8400,462.1675
22.8500,434.1800
22.8600,422.9700
22.8700,438.5225
22.8800,431.9600
22.8900,438.9475
22.9000,414.3025
22.9100,422.4100
22.9200,433.3100
22.9300,417.1500
22.9400,444.7450
22.9500,467.6700
22.9600,434.7425
22.9700,444.7350
22.9800,448.6900
22.9900,416.3050
23.0000,394.7100
23.0100,402.4200
23.0200,392.5800
23.0300,369.3750
23.0400,388.9125
23.0500,405.5650
23.0600,420.0000
23.0700,420.4425
23.0800,417.1900
23.0900,380.1550
23.1000,405.5025
23.1100,414.8275
23.1200,377.8575
23.1300,367.1675
23.1400,395.8725
23.1500,409.9675
23.1600,384.1575
23.1700,369.5775
23.1800,390.4125
23.1900,395.7975
23.2000,405.9900
23.2100,351.7125
23.2200,343.2225
23.2300,369.0675
23.2400,393.0300
23.2500,439.6050
23.2600,438.6300
23.2700,456.4550
23.2800,473.4125
23.2900,417.9450
23.3000,376.2850
23.3100,375.9925
23.3200,397.7975
23.3300,407.4150
23.3400,411.4725
23.3500,391.8625
23.3600,358.8375
23.3700,407.3425
23.3800,438.1900
23.3900,420.1000
23.4000,394.4025
23.4100,406.5200
23.4200,431.2250
23.4300,415.7750
23.4400,436.6675
23.4500,438.7300
23.4600,458.0325
23.4700,468.9850
23.4800,454.6225
23.4900,416.3375
23.5000,510.2825
23.5100,568.4075
23.5200,522.3550
23.5300,521.4125
23.5400,601.1550
23.5500,643.6525
23.5600,661.4950
23.5700,813.6600
23.5800,915.8150
23.5900,954.1550
23.6000,1105.2350
23.6100,1225.4525
23.6200,1259.8675
23.6300,1388.8725
23.6400,1347.1650
23.6500,1392.8050
23.6600,1469.4125
23.6700,1599.3150
23.6800,1564.9175
23.6900,1655.3075
23.7000,1663.2600
23.7100,1505.8725
23.7200,1392.4250
23.7300,1463.7275
23.7400,1533.1125
23.7500,1410.8050
23.7600,1346.7625
23.7700,1386.1450
23.7800,1384.9150
23.7900,1446.4050
23.8000,1486.1225
23.8100,1518.9975
23.8200,1511.8800
23.8300,1577.8950
23.8400,1587.7425
23.8500,1513.7800
23.8600,1474.2875
23.8700,1447.5700
23.8800,1497.5150
23.8900,1416.3175
23.9000,1360.0675
23.9100,1261.6775
23.9200,1137.1050
23.9300,1003.5525
23.9400,998.8475
23.9500,880.8725
23.9600,795.6075
23.9700,774.9750
23.9800,697.1050
23.9900,648.8400
24.0000,578.9925
24.0100,560.9450
24.0200,520.3875
24.0300,475.6600
24.0400,514.4800
24.0500,534.4650
24.0600,552.4025
24.0700,535.7500
24.0800,520.5425
24.0900,528.3950
24.1000,500.8775
24.1100,518.0500
24.1200,542.6525
24.1300,527.6500
24.1400,483.6625
24.1500,491.1375
24.1600,512.2125
24.1700,488.8975
24.1800,466.0475
24.1900,454.7025
24.2000,483.3325
24.2100,485.0975
24.2200,522.3225
24.2300,498.8650
24.2400,473.1950
24.2500,467.5425
24.2600,409.1975
24.2700,390.6575
24.2800,407.6975
24.2900,434.7200
24.3000,467.1600
24.3100,394.5425
24.3200,425.6025
24.3300,397.4775
24.3400,419.4350
24.3500,403.5550
24.3600,409.3525
24.3700,390.9475
24.3800,420.5125
24.3900,437.4675
24.4000,462.4575
24.4100,433.3325
24.4200,432.1350
24.4300,389.8200
24.4400,384.4650
24.4500,425.2325
24.4600,370.8175
24.4700,402.7000
24.4800,376.2075
24.4900,357.4050
24.5000,390.0725
24.5100,393.7450
24.5200,412.8050
24.5300,386.2225
24.5400,362.4825
24.5500,317.8875
24.5600,387.6675
24.5700,445.6600
24.5800,383.0825
24.5900,366.8100
24.6000,376.7575
24.6100,383.4175
24.6200,389.7200
24.6300,366.8900
24.6400,386.4600
24.6500,366.2175
24.6600,320.1175
24.6700,333.4125
24.6800,343.6000
24.6900,379.7200
24.7000,336.8375
24.7100,366.5700
24.7200,346.7900
24.7300,376.6775
24.7400,379.9675
24.7500,366.6900
24.7600,379.9925
24.7700,373.3300
24.7800,346.6825
24.7900,346.6675
24.8000,393.2300
24.8100,393.3325
24.8200,409.9375
24.8300,353.5925
24.8400,363.2800
24.8500,383.2100
24.8600,370.0925
24.8700,360.0775
24.8800,317.0350
24.8900,329.8750
24.9000,379.4950
24.9100,363.5150
24.9200,389.6900
24.9300,403.1675
24.9400,436.2250
24.9500,420.2350
24.9600,406.8650
24.9700,413.2300
24.9800,364.1525
24.9900,399.3700
25.0000,360.7200
25.0100,356.7300
25.0200,412.2250
25.0300,393.7400
25.0400,422.7000
25.0500,393.9900
25.0600,367.2725
25.0700,399.2175
25.0800,409.7575
25.0900,364.5050
25.1000,402.2975
25.1100,477.9550
25.1200,405.4400
25.1300,403.3325
25.1400,413.0425
25.1500,413.3325
25.1600,426.2575
25.1700,455.7250
25.1800,466.3450
25.1900,405.4225
25.2000,387.2300
25.2100,409.1925
25.2200,471.0925
25.2300,511.8875
25.2400,468.3925
25.2500,479.4975
25.2600,534.4825
25.2700,552.6775
25.2800,559.7325
25.2900,617.5450
25.3000,632.7775
25.3100,700.3575
25.3200,712.9000
25.3300,802.5525
25.3400,879.8925
25.3500,934.2300
25.3600,1095.5900
25.3700,1147.7950
25.3800,1235.6750
25.3900,1300.2400
25.4000,1341.3475
25.4100,1378.1500
25.4200,1436.9275
25.4300,1430.5200
25.4400,1471.0450
25.4500,1473.3325
25.4600,1473.3325
25.4700,1463.8850
25.4800,1463.3325
25.4900,1400.4525
25.5000,1468.9200
25.5100,1485.8875
25.5200,1392.5825
25.5300,1317.7300
25.5400,1407.2575
25.5500,1425.8450
25.5600,1314.1475
25.5700,1347.2650
25.5800,1353.1200
25.5900,1331.5100
25.6000,1333.1150
25.6100,1295.9850
25.6200,1299.5525
25.6300,1256.5025
25.6400,1178.8300
25.6500,1108.1975
25.6600,1069.2425
25.6700,1010.9325
25.6800,929.3225
25.6900,846.0550
25.7000,787.4975
25.7100,690.7600
25.7200,655.5850
25.7300,585.5625
25.7400,567.6875
25.7500,551.2900
25.7600,525.4200
25.7700,492.6350
25.7800,440.9250
25.7900,439.7300
25.8000,415.5050
25.8100,391.9175
25.8200,414.4525
25.8300,425.8275
25.8400,399.2050
25.8500,390.5700
25.8600,405.2300
25.8700,376.2325
25.8800,342.9275
25.8900,370.3800
25.9000,388.5100
25.9100,362.7050
25.9200,369.0900
25.9300,394.2200
25.9400,378.5175
25.9500,391.7775
25.9600,378.2350
25.9700,355.5500
25.9800,389.5025
25.9900,366.2300
26.0000,411.4750
26.0100,440.7150
26.0200,368.2450
26.0300,363.0000
26.0400,354.3400
26.0500,365.3150
26.0600,378.6375
26.0700,388.9700
26.0800,449.7500
26.0900,420.8475
26.1000,362.9875
26.1100,410.2975
26.1200,407.7350
26.1300,400.7175
26.1400,391.0850
26.1500,351.4050
26.1600,370.3975
26.1700,376.2975
26.1800,367.7850
26.1900,381.4575
26.2000,383.3325
26.2100,401.0500
26.2200,409.2350
26.2300,433.5800
26.2400,427.8325
26.2500,403.1275
26.2600,423.5175
26.2700,458.9725
26.2800,401.7125
26.2900,340.5650
26.3000,391.9125
26.3100,464.3775
26.3200,432.4025
26.3300,438.3500
26.3400,448.7550
26.3500,470.4100
26.3600,450.0300
26.3700,484.5000
26.3800,498.7225
26.3900,508.7150
26.4000,539.0225
26.4100,549.1325
26.4200,532.6175
26.4300,530.0000
26.4400,544.4575
26.4500,535.1100
26.4600,533.3325
26.4700,544.8675
26.4800,514.9750
26.4900,492.7300
26.5000,498.6275
26.5100,497.1275
26.5200,508.1475
26.5300,510.0000
26.5400,481.3500
26.5500,542.5000
26.5600,501.8600
26.5700,484.7625
26.5800,471.9150
26.5900,504.2200
26.6000,510.0000
26.6100,472.9975
26.6200,495.1025
26.6300,465.9075
26.6400,482.7050
26.6500,469.6525
26.6600,483.6650
26.6700,432.8925
26.6800,423.3325
26.6900,414.8575
26.7000,424.6225
26.7100,432.3050
26.7200,444.6000
26.7300,426.9675
26.7400,395.2175
26.7500,378.7650
26.7600,385.0850
26.7700,403.4875
26.7800,398.2650
26.7900,382.6750
26.8000,388.3875
26.8100,370.4500
26.8200,380.6175
26.8300,377.7575
26.8400,371.0975
26.8500,386.6925
26.8600,370.5425
26.8700,358.3350
26.8800,362.2150
26.8900,343.9325
26.9000,337.2300
26.9100,353.2625
26.9200,384.3000
26.9300,395.5225
26.9400,366.3275
26.9500,329.6900
26.9600,364.6250
26.9700,398.0850
26.9800,419.8175
26.9900,384.9075
27.0000,357.4725
27.0100,361.5525
27.0200,371.5425
27.0300,384.2700
27.0400,321.1150
27.0500,344.8675
27.0600,394.2225
27.0700,378.8225
27.0800,359.7300
27.0900,364.8200
27.1000,350.3750
27.1100,354.8050
27.1200,397.3150
27.1300,390.4225
27.1400,408.3025
27.1500,440.3525
27.1600,403.4800
27.1700,379.8500
27.1800,392.8300
27.1900,377.8275
27.2000,421.7275
27.2100,430.6475
27.2200,413.9000
27.2300,407.3200
27.2400,422.7325
27.2500,391.8900
27.2600,391.3500
27.2700,433.3800
27.2800,448.6675
27.2900,447.3350
27.3000,459.9750
27.3100,463.3325
27.3200,471.3025
27.3300,489.2550
27.3400,503.9375
27.3500,504.0175
27.3600,511.2700
27.3700,563.5500
27.3800,647.9550
27.3900,685.1300
27.4000,705.8100
27.4100,754.7475
27.4200,840.2950
27.4300,891.5225
27.4400,973.4775
27.4500,1124.4100
27.4600,1170.4750
27.4700,1306.7575
27.4800,1458.3275
27.4900,1516.1075
27.5000,1578.1050
27.5100,1637.6250
27.5200,1642.1925
27.5300,1738.8025
27.5400,1865.3675
27.5500,1805.1125
27.5600,1748.8950
27.5700,1768.4825
27.5800,1802.5325
27.5900,1722.1450
27.6000,1699.2475
27.6100,1756.7300
27.6200,1793.9400
27.6300,1807.7200
27.6400,1815.1400
27.6500,1734.4925
27.6600,1794.6525
27.6700,1750.8100
27.6800,1706.9600
27.6900,1705.1150
27.7000,1693.8950
27.7100,1667.0325
27.7200,1575.8775
27.7300,1509.2575
27.7400,1422.8975
27.7500,1346.6375
27.7600,1198.0025
27.7700,1136.3800
27.7800,1051.4750
27.7900,970.9975
27.8000,925.5300
27.8100,845.9675
27.8200,800.6325
27.8300,712.7050
27.8400,641.3625
27.8500,583.9250
27.8600,559.9525
27.8700,529.0675
27.8800,497.4450
27.8900,479.9850
27.9000,489.1700
27.9100,458.3600
27.9200,454.1525
27.9300,441.7100
27.9400,449.1175
27.9500,465.7700
27.9600,455.0925
27.9700,432.6250
27.9800,444.0225
27.9900,452.4775
28.0000,445.9125
28.0100,440.8625
28.0200,420.2500
28.0300,433.0600
28.0400,437.5375
28.0500,439.1275
28.0600,400.6725
28.0700,433.3150
28.0800,432.8325
28.0900,441.3650
28.1000,461.3500
28.1100,437.3325
28.1200,431.5500
28.1300,423.5775
28.1400,424.8725
28.1500,443.7025
28.1600,452.4300
28.1700,438.7625
28.1800,440.6100
28.1900,467.5625
28.2000,474.2475
28.2100,432.2325
28.2200,428.7425
28.2300,455.0450
28.2400,477.7900
28.2500,461.6700
28.2600,455.7375
28.2700,437.4550
28.2800,418.0050
28.2900,444.4850
28.3000,437.5175
28.3100,470.6450
28.3200,493.8300
28.3300,489.5100
28.3400,474.7525
28.3500,474.7600
28.3600,479.0450
28.3700,489.5000
28.3800,528.9150
28.3900,536.2250
28.4000,552.2675
28.4100,569.4550
28.4200,580.4175
28.4300,540.8775
28.4400,577.5200
28.4500,637.6525
28.4600,683.8900
28.4700,769.4500
28.4800,835.1775
28.4900,906.2200
28.5000,1058.6900
28.5100,1155.4025
28.5200,1271.3800
28.5300,1441.5800
28.5400,1648.0575
28.5500,1813.3675
28.5600,1949.6150
28.5700,2061.9525
28.5800,2165.2025
28.5900,2342.5525
28.6000,2545.4450
28.6100,2648.2525
28.6200,2673.5900
28.6300,2718.1550
28.6400,2773.5025
28.6500,2923.3750
28.6600,3102.7700
28.6700,3080.9575
28.6800,3032.9175
28.6900,3125.0850
28.7000,3215.7225
28.7100,3309.7375
28.7200,3395.7900
28.7300,3438.2250
28.7400,3407.9850
28.7500,3360.4550
28.7600,3405.6875
28.7700,3492.2850
28.7800,3476.9725
28.7900,3391.0700
28.8000,3436.8175
28.8100,3446.2550
28.8200,3329.6525
28.8300,3165.1850
28.8400,3053.7850
28.8500,2824.5375
28.8600,2641.4250
28.8700,2676.1775
28.8800,2686.4800
28.8900,2574.9875
28.9000,2470.8550
28.9100,2588.2700
28.9200,2624.3675
28.9300,2535.4850
28.9400,2440.0125
28.9500,2392.2475
28.9600,2403.2800
28.9700,2377.9150
28.9800,2326.8350
28.9900,2254.7925
29.0000,2266.3675
29.0100,2291.0725
29.0200,2291.1325
29.0300,2204.2950
29.0400,2162.1950
29.0500,2200.6000
29.0600,2211.2425
29.0700,2197.9200
29.0800,2156.2025
29.0900,2082.1300
29.1000,2070.7650
29.1100,2110.4650
29.1200,2033.2075
29.1300,1965.9675
29.1400,1908.9675
29.1500,1924.4750
29.1600,1985.5950
29.1700,1926.7450
29.1800,1857.4450
29.1900,1785.1575
29.2000,1755.4850
29.2100,1687.8875
29.2200,1557.6950
29.2300,1457.3550
29.2400,1466.4025
29.2500,1420.3700
29.2600,1336.3425
29.2700,1307.8675
29.2800,1304.5350
29.2900,1260.7750
29.3000,1179.2875
29.3100,1070.2575
29.3200,988.5100
29.3300,937.0275
29.3400,913.6575
29.3500,897.3300
29.3600,887.8900
29.3700,829.7925
29.3800,763.0075
29.3900,766.4450
29.4000,773.7050
29.4100,713.4150
29.4200,665.3500
29.4300,644.1250
29.4400,674.2450
29.4500,684.1575
29.4600,647.5150
29.4700,648.7175
29.4800,672.4625
29.4900,671.7025
29.5000,658.3800
29.5100,694.7125
29.5200,689.0075
29.5300,665.8725
29.5400,673.6375
29.5500,684.1175
29.5600,666.1125
29.5700,632.8050
29.5800,640.5025
29.5900,610.3350
29.6000,595.6025
29.6100,615.5850
29.6200,580.5050
29.6300,504.4500
29.6400,514.0150
29.6500,519.6850
29.6600,488.4075
29.6700,466.5375
29.6800,466.0700
29.6900,510.4150
29.7000,530.6125
29.7100,528.6825
29.7200,532.0125
29.7300,493.1325
29.7400,456.6300
29.7500,429.9525
29.7600,444.6950
29.7700,471.3300
29.7800,456.7000
29.7900,459.2850
29.8000,481.9475
29.8100,484.0350
29.8200,454.1825
29.8300,468.3975
29.8400,495.9425
29.8500,501.9775
29.8600,534.9375
29.8700,540.8850
29.8800,520.1500
29.8900,507.4325
29.9000,491.5450
29.9100,508.8375
29.9200,526.6675
29.9300,516.8850
29.9400,519.7700
29.9500,538.3725
29.9600,544.7175
29.9700,541.3875
29.9800,557.4875
29.9900,558.3575
30.0000,536.4350
30.0100,567.3050
30.0200,581.2075
30.0300,610.5250
30.0400,628.4375
30.0500,616.1500
30.0600,621.0200
30.0700,678.4825
30.0800,714.7500
30.0900,726.7300
30.1000,772.9775
30.1100,851.5275
30.1200,897.6225
30.1300,901.4300
30.1400,945.6100
30.1500,1031.2375
30.1600,1168.5425
30.1700,1315.2450
30.1800,1517.3975
30.1900,1667.7400
30.2000,1853.0700
30.2100,2029.7850
30.2200,2129.7050
30.2300,2265.2750
30.2400,2462.2050
30.2500,2735.8775
30.2600,2923.7800
30.2700,3023.0350
30.2800,3194.8225
30.2900,3404.9550
30.3000,3543.4900
30.3100,3598.1725
30.3200,3626.6700
30.3300,3758.3800
30.3400,3927.2150
30.3500,4038.3075
30.3600,4113.1500
30.3700,4174.9425
30.3800,4113.3525
30.3900,4188.5275
30.4000,4308.1700
30.4100,4337.7475
30.4200,4312.2150
30.4300,4331.9825
30.4400,4403.3575
30.4500,4436.3600
30.4600,4448.1850
30.4700,4397.7325
30.4800,4396.4800
30.4900,4460.7200
30.5000,4387.4275
30.5100,4256.4900
30.5200,4108.7250
30.5300,3998.7025
30.5400,3972.5700
30.5500,4038.5575
30.5600,3928.0725
30.5700,3755.2375
30.5800,3733.1000
30.5900,3646.3225
30.6000,3521.7800
30.6100,3442.9400
30.6200,3420.4225
30.6300,3504.5350
30.6400,3499.1150
30.6500,3429.8050
30.6600,3490.0900
30.6700,3511.4850
30.6800,3451.8975
30.6900,3447.7125
30.7000,3475.4225
30.7100,3511.3075
30.7200,3543.6500
30.7300,3544.7700
30.7400,3581.7725
30.7500,3686.0375
30.7600,3705.0225
30.7700,3664.9350
30.7800,3614.8975
30.7900,3466.3700
30.8000,3225.1400
30.8100,2993.5750
30.8200,2853.4775
30.8300,2787.7850
30.8400,2668.8800
30.8500,2597.2900
30.8600,2500.4000
30.8700,2306.4875
30.8800,2168.6825
30.8900,2055.5800
30.9000,1965.9775
30.9100,1911.3525
30.9200,1851.0175
30.9300,1703.5325
30.9400,1611.8125
30.9500,1621.6475
30.9600,1577.9500
30.9700,1491.3250
30.9800,1443.3125
30.9900,1416.5625
31.0000,1371.6050
31.0100,1311.6200
31.0200,1241.6775
31.0300,1234.9525
31.0400,1196.8900
31.0500,1128.3600
31.0600,1096.8450
31.0700,1066.6950
31.0800,1073.2350
31.0900,1089.9225
31.1000,1091.7325
31.1100,1080.0975
31.1200,1047.1000
31.1300,1018.3625
31.1400,992.1525
31.1500,1009.0875
31.1600,1030.5275
31.1700,957.8775
31.1800,900.1725
31.1900,873.8800
31.2000,825.8200
31.2100,783.7400
31.2200,737.7375
31.2300,703.3325
31.2400,704.9400
31.2500,655.3025
31.2600,604.8075
31.2700,613.2000
31.2800,603.8900
31.2900,550.1375
31.3000,485.9725
31.3100,469.6900
31.3200,459.2150
31.3300,440.0000
31.3400,470.0450
31.3500,467.0250
31.3600,436.1225
31.3700,446.6675
31.3800,448.2375
31.3900,453.1350
31.4000,455.1000
31.4100,448.6450
31.4200,466.7350
31.4300,501.1200
31.4400,492.8975
31.4500,459.3625
31.4600,446.4325
31.4700,412.8725
31.4800,380.8100
31.4900,407.2075
31.5000,412.5600
31.5100,416.9000
31.5200,427.4650
31.5300,404.4175
31.5400,391.5275
31.5500,400.9625
31.5600,440.4625
31.5700,479.7075
31.5800,457.5300
31.5900,450.9100
31.6000,472.4375
31.6100,451.2525
31.6200,444.2025
31.6300,439.7900
31.6400,403.8075
31.6500,374.0025
31.6600,366.6675
31.6700,369.6550
31.6800,394.2150
31.6900,406.6000
31.7000,385.5400
31.7100,390.3850
31.7200,406.2950
31.7300,424.7825
31.7400,437.4300
31.7500,416.7425
31.7600,394.1175
31.7700,389.6025
31.7800,409.4500
31.7900,435.8500
31.8000,419.9750
31.8100,403.1150
31.8200,417.0900
31.8300,403.1700
31.8400,410.2925
31.8500,438.1125
31.8600,416.8950
31.8700,380.9000
31.8800,386.2825
31.8900,434.9300
31.9000,446.5600
31.9100,399.5125
31.9200,378.5725
31.9300,373.3125
31.9400,379.5500
31.9500,355.7950
31.9600,359.3525
31.9700,387.1700
31.9800,390.3975
31.9900,412.6900
32.0000,404.6675
32.0100,353.1425
32.0200,365.0525
32.0300,418.9300
32.0400,416.8900
32.0500,390.7850
32.0600,370.5500
32.0700,379.1675
32.0800,402.2125
32.0900,426.6050
32.1000,418.2350
32.1100,385.7400
32.1200,393.7025
32.1300,367.6400
32.1400,358.2225
32.1500,365.8950
32.1600,351.8075
32.1700,356.3525
32.1800,384.0800
32.1900,383.2125
32.2000,363.8500
32.2100,341.8875
32.2200,344.8450
32.2300,377.4425
32.2400,391.9900
32.2500,373.8975
32.2600,345.9825
32.2700,335.9900
32.2800,331.3350
32.2900,347.9775
32.3000,370.0000
32.3100,373.9775
32.3200,383.9700
32.3300,364.9025
32.3400,333.2575
32.3500,343.3325
32.3600,347.2725
32.3700,340.2300
32.3800,340.9250
32.3900,382.4700
32.4000,397.9700
32.4100,390.9000
32.4200,372.7750
32.4300,362.7825
32.4400,361.8350
32.4500,368.7100
32.4600,367.9525
32.4700,381.5575
32.4800,393.5925
32.4900,378.2175
32.5000,366.1700
32.5100,365.0950
32.5200,392.4025
32.5300,441.0950
32.5400,433.2850
32.5500,375.8600
32.5600,376.2175
32.5700,376.2900
32.5800,395.4550
32.5900,418.7700
32.6000,439.5850
32.6100,440.0175
32.6200,425.8225
32.6300,434.9700
32.6400,447.0525
32.6500,465.7075
32.6600,479.2575
32.6700,474.0600
32.6800,494.0450
32.6900,493.1700
32.7000,493.2625
32.7100,528.4475
32.7200,511.4650
32.7300,494.2325
32.7400,497.2850
32.7500,514.8450
32.7600,508.8275
32.7700,480.9200
32.7800,465.8350
32.7900,467.0825
32.8000,500.9375
32.8100,512.2125
32.8200,534.0350
32.8300,522.1425
32.8400,506.9325
32.8500,471.4800
32.8600,447.6350
32.8700,440.9725
32.8800,431.9550
32.8900,418.6325
32.9000,439.3100
32.9100,467.5975
32.9200,418.8325
32.9300,420.1600
32.9400,426.6675
32.9500,411.5925
32.9600,383.3325
32.9700,374.1000
32.9800,365.8800
32.9900,398.2725
33.0000,414.0550
33.0100,379.7050
33.0200,348.5875
33.0300,335.7775
33.0400,362.4225
33.0500,380.0000
33.0600,380.0000
33.0700,384.5125
33.0800,391.0825
33.0900,382.1725
33.1000,374.4550
33.1100,355.4225
33.1200,318.9100
33.1300,352.2575
33.1400,393.3350
33.1500,392.2050
33.1600,411.0700
33.1700,423.3600
33.1800,395.7675
33.1900,367.6000
33.2000,397.7625
33.2100,393.4475
33.2200,373.4625
33.2300,368.6975
33.2400,380.1600
33.2500,379.6500
33.2600,435.8100
33.2700,485.9000
33.2800,445.0725
33.2900,419.5250
33.3000,442.3900
33.3100,434.4000
33.3200,441.9850
33.3300,438.4750
33.3400,414.0775
33.3500,428.9450
33.3600,448.7925
33.3700,490.3600
33.3800,465.1350
33.3900,444.1825
33.4000,465.8525
33.4100,491.2525
33.4200,474.2075
33.4300,434.2400
33.4400,413.8975
33.4500,434.1225
33.4600,449.5000
33.4700,464.3575
33.4800,463.5975
33.4900,449.5250
33.5000,446.5625
33.5100,473.6225
33.5200,447.4300
33.5300,404.3425
33.5400,420.7700
33.5500,468.4050
33.5600,511.3500
33.5700,521.0025
33.5800,514.9575
33.5900,564.9175
33.6000,581.1525
33.6100,553.4875
33.6200,608.1350
33.6300,645.3025
33.6400,641.1650
33.6500,613.1450
33.6600,607.4100
33.6700,661.5800
33.6800,737.7725
33.6900,746.9775
33.7000,707.8725
33.7100,678.6750
33.7200,711.5350
33.7300,732.3300
33.7400,743.9300
33.7500,817.1400
33.7600,792.8825
33.7700,768.0200
33.7800,815.2250
33.7900,839.8100
33.8000,904.1125
33.8100,941.8775
33.8200,966.3175
33.8300,1053.9925
33.8400,1168.6125
33.8500,1247.2925
33.8600,1344.2500
33.8700,1421.3800
33.8800,1552.1150
33.8900,1679.0825
33.9000,1690.3950
33.9100,1741.2700
33.9200,1799.1150
33.9300,1830.9400
33.9400,1789.9550
33.9500,1821.1800
33.9600,1855.8350
33.9700,1949.8725
33.9800,2079.3775
33.9900,2212.5450
34.0000,2295.7900
34.0100,2333.5500
34.0200,2361.9125
34.0300,2420.3900
34.0400,2396.8950
34.0500,2266.1400
34.0600,2255.0325
34.0700,2306.6675
34.0800,2324.9275
34.0900,2383.6025
34.1000,2405.9275
34.1100,2423.6750
34.1200,2430.1300
34.1300,2345.3400
34.1400,2227.5525
34.1500,2003.4475
34.1600,1882.8875
34.1700,1787.0850
34.1800,1683.8300
34.1900,1608.3500
34.2000,1618.3675
34.2100,1594.8525
34.2200,1465.8225
34.2300,1421.6700
34.2400,1382.6800
34.2500,1267.6025
34.2600,1212.6975
34.2700,1156.7150
34.2800,1136.8400
34.2900,1099.3200
34.3000,1105.1500
34.3100,1190.9000
34.3200,1172.8200
34.3300,1148.0625
34.3400,1165.2975
34.3500,1141.6025
34.3600,1144.2700
34.3700,1123.1325
34.3800,1074.4450
34.3900,1047.9650
34.4000,1029.4625
34.4100,1049.7825
34.4200,1017.4500
34.4300,1035.6200
34.4400,1078.1025
34.4500,1042.2400
34.4600,1025.1750
34.4700,1072.6050
34.4800,1138.9725
34.4900,1161.2175
34.5000,1199.3125
34.5100,1157.2475
34.5200,1148.8000
34.5300,1202.0925
34.5400,1244.8400
34.5500,1249.2500
34.5600,1258.6375
34.5700,1303.7275
34.5800,1325.5850
34.5900,1335.9275
34.6000,1273.6675
34.6100,1321.0350
34.6200,1381.2625
34.6300,1439.1300
34.6400,1361.3750
34.6500,1312.4725
34.6600,1340.5650
34.6700,1350.8125
34.6800,1278.9700
34.6900,1227.3825
34.7000,1233.5650
34.7100,1250.2200
34.7200,1247.7550
34.7300,1196.3500
34.7400,1223.5150
34.7500,1235.9650
34.7600,1234.7300
34.7700,1234.4350
34.7800,1191.1550
34.7900,1086.6400
34.8000,998.3025
34.8100,943.7350
34.8200,901.2025
34.8300,871.1525
34.8400,841.4125
34.8500,853.9200
34.8600,797.6900
34.8700,677.3775
34.8800,689.2950
34.8900,624.6600
34.9000,644.6600
34.9100,628.8600
34.9200,543.3325
34.9300,549.8900
34.9400,579.2800
34.9500,577.6375
34.9600,517.5925
34.9700,480.6450
34.9800,482.6900
34.9900,492.1725
35.0000,536.3125
35.0100,499.0375
35.0200,462.2350
35.0300,451.5325
35.0400,474.7300
35.0500,416.4500
35.0600,392.2775
35.0700,412.9425
35.0800,397.2850
35.0900,401.2325
35.1000,406.6675
35.1100,393.2275
35.1200,327.2500
35.1300,307.8775
35.1400,354.8000
35.1500,407.2675
35.1600,407.6050
35.1700,403.2225
35.1800,430.9600
35.1900,416.4525
35.2000,397.6450
35.2100,389.5975
35.2200,401.5825
35.2300,392.7525
35.2400,389.4225
35.2500,386.0900
35.2600,382.1850
35.2700,386.9500
35.2800,424.7225
35.2900,369.4975
35.3000,384.4600
35.3100,388.3150
35.3200,374.9700
35.3300,363.9100
35.3400,433.3325
35.3500,424.5100
35.3600,380.5500
35.3700,392.0775
35.3800,435.0350
35.3900,420.1675
35.4000,388.2850
35.4100,388.6150
35.4200,347.2000
35.4300,352.6600
35.4400,367.7250
35.4500,373.3325
35.4600,374.3825
35.4700,373.2150
35.4800,337.1850
35.4900,346.7225
35.5000,384.3625
35.5100,392.0475
35.5200,394.1600
35.5300,343.8400
35.5400,350.2000
35.5500,377.5350
35.5600,417.5000
35.5700,398.3600
35.5800,365.0500
35.5900,338.1450
35.6000,347.6475
35.6100,349.9200
35.6200,331.4550
35.6300,341.9300
35.6400,352.8525
35.6500,347.1325
35.6600,336.1800
35.6700,373.8050
35.6800,378.0775
35.6900,390.8775
35.7000,412.4775
35.7100,391.7600
35.7200,420.5700
35.7300,396.4600
35.7400,359.2575
35.7500,399.8400
35.7600,413.6875
35.7700,374.6775
35.7800,387.7925
35.7900,414.8925
35.8000,409.0675
35.8100,449.7375
35.8200,474.3625
35.8300,502.0325
35.8400,495.9225
35.8500,511.6175
35.8600,498.7200
35.8700,486.6075
35.8800,467.9725
35.8900,498.7425
35.9000,499.1700
35.9100,566.6475
35.9200,588.3525
35.9300,582.8100
35.9400,630.3300
35.9500,651.8100
35.9600,616.2650
35.9700,615.7325
35.9800,633.3325
35.9900,632.5425
36.0000,627.4525
36.0100,631.7725
36.0200,622.7150
36.0300,641.4075
36.0400,621.6900
36.0500,586.3775
36.0600,612.6450
36.0700,632.9575
36.0800,627.7600
36.0900,607.4050
36.1000,590.3500
36.1100,613.0475
36.1200,557.7575
36.1300,566.3050
36.1400,558.6700
36.1500,520.3575
36.1600,524.0400
36.1700,530.3525
36.1800,530.1925
36.1900,503.3325
36.2000,500.2350
36.2100,469.5725
36.2200,437.0050
36.2300,440.6750
36.2400,446.6675
36.2500,443.0125
36.2600,406.0425
36.2700,373.6000
36.2800,406.3425
36.2900,398.8175
36.3000,356.3475
36.3100,354.6050
36.3200,365.0900
36.3300,356.5725
36.3400,413.7900
36.3500,352.7175
36.3600,351.2525
36.3700,398.4875
36.3800,410.6475
36.3900,349.4025
36.4000,344.5175
36.4100,356.9600
36.4200,363.7875
36.4300,404.2000
36.4400,408.4625
36.4500,354.6775
36.4600,333.3325
36.4700,336.4075
36.4800,371.1075
36.4900,382.5100
36.5000,368.9775
36.5100,322.4275
36.5200,350.2675
36.5300,352.2725
36.5400,343.4150
36.5500,383.5925
36.5600,382.7975
36.5700,337.6875
36.5800,354.5550
36.5900,411.7550
36.6000,431.8425
36.6100,414.8100
36.6200,431.3850
36.6300,408.8375
36.6400,435.7125
36.6500,426.8800
36.6600,473.3325
36.6700,472.8700
36.6800,468.9600
36.6900,501.1350
36.7000,513.0725
36.7100,462.4450
36.7200,451.5400
36.7300,473.1150
36.7400,472.5800
36.7500,512.7650
36.7600,553.7550
36.7700,558.3350
36.7800,531.0725
36.7900,493.6175
36.8000,447.2700
36.8100,458.0550
36.8200,480.1950
36.8300,482.1700
36.8400,463.1425
36.8500,461.7025
36.8600,489.0675
36.8700,473.3325
36.8800,470.4225
36.8900,417.6650
36.9000,376.8450
36.9100,382.2725
36.9200,424.3675
36.9300,441.8025
36.9400,412.9975
36.9500,406.8325
36.9600,412.4475
36.9700,454.6950
36.9800,353.0100
36.9900,411.7725
37.0000,380.4600
37.0100,388.7900
37.0200,364.8225
37.0300,395.6400
37.0400,372.9000
37.0500,365.8875
37.0600,422.4950
37.0700,403.4700
37.0800,406.2625
37.0900,396.1375
37.1000,382.6825
37.1100,366.4100
37.1200,358.4925
37.1300,319.7525
37.1400,315.5100
37.1500,373.3325
37.1600,373.1000
37.1700,368.4875
37.1800,419.4425
37.1900,402.6775
37.2000,382.8000
37.2100,366.7700
37.2200,371.3275
37.2300,412.9350
37.2400,400.0000
37.2500,399.6200
37.2600,386.9450
37.2700,396.1225
37.2800,376.6675
37.2900,378.0400
37.3000,429.5825
37.3100,413.9025
37.3200,437.2175
37.3300,459.9225
37.3400,457.3350
37.3500,485.9475
37.3600,452.7775
37.3700,426.6675
37.3800,427.1200
37.3900,450.2500
37.4000,463.2725
37.4100,459.9425
37.4200,456.9450
37.4300,474.0800
37.4400,519.7450
37.4500,503.8700
37.4600,540.2775
37.4700,559.2950
37.4800,507.0425
37.4900,536.9825
37.5000,563.9650
37.5100,620.6275
37.5200,680.1950
37.5300,700.0300
37.5400,703.7800
37.5500,757.2550
37.5600,833.7750
37.5700,896.6675
37.5800,897.2450
37.5900,1000.2125
37.6000,1043.4175
37.6100,1063.9100
37.6200,1226.6300
37.6300,1213.4275
37.6400,1256.7500
37.6500,1313.3800
37.6600,1373.3400
37.6700,1443.2900
37.6800,1529.8875
37.6900,1636.4550
37.7000,1709.8025
37.7100,1832.9175
37.7200,1893.0900
37.7300,1863.4750
37.7400,1823.5500
37.7500,1836.5850
37.7600,1926.0550
37.7700,1936.5925
37.7800,2039.1550
37.7900,1993.7475
37.8000,2089.0775
37.8100,2080.1025
37.8200,2208.5800
37.8300,2285.7775
37.8400,2095.7100
37.8500,2109.7850
37.8600,2086.9850
37.8700,2109.6650
37.8800,2064.0350
37.8900,1971.4675
37.9000,1963.4425
37.9100,1966.6100
37.9200,1924.1025
37.9300,1795.7300
37.9400,1803.1425
37.9500,1826.2050
37.9600,1865.8475
37.9700,1834.0400
37.9800,1892.0225
37.9900,1909.6250
38.0000,1802.5525
38.0100,1777.2250
38.0200,1792.9225
38.0300,1842.0700
38.0400,1723.1975
38.0500,1788.1375
38.0600,1751.0925
38.0700,1785.6400
38.0800,1663.6300
38.0900,1689.1200
38.1000,1709.4000
38.1100,1661.5350
38.1200,1627.7125
38.1300,1694.4225
38.1400,1696.6675
38.1500,1629.0050
38.1600,1597.6900
38.1700,1593.4500
38.1800,1506.5225
38.1900,1435.8600
38.2000,1436.5450
38.2100,1308.3275
38.2200,1293.7150
38.2300,1242.0700
38.2400,1105.5275
38.2500,1131.9950
38.2600,1069.3875
38.2700,1053.8875
38.2800,1021.4050
38.2900,1058.2850
38.3000,986.6700
38.3100,878.1950
38.3200,825.5775
38.3300,906.0525
38.3400,951.3300
38.3500,946.9800
38.3600,914.9175
38.3700,872.0900
38.3800,955.6000
38.3900,985.3450
38.4000,983.5000
38.4100,1078.2425
38.4200,1130.7550
38.4300,1130.1750
38.4400,1186.8250
38.4500,1259.4050
38.4600,1266.4850
38.4700,1232.0125
38.4800,1255.1850
38.4900,1250.3750
38.5000,1281.4350
38.5100,1286.4750
38.5200,1255.2750
38.5300,1240.7850
38.5400,1315.2325
38.5500,1370.1200
38.5600,1367.0725
38.5700,1394.8200
38.5800,1368.5350
38.5900,1372.9150
38.6000,1323.3900
38.6100,1270.0925
38.6200,1229.2625
38.6300,1207.9775
38.6400,1113.2900
38.6500,1060.0125
38.6600,1053.5575
38.6700,1003.6400
38.6800,1009.3100
38.6900,1078.2325
38.7000,928.3700
38.7100,811.3650
38.7200,806.4275
38.7300,769.5550
38.7400,726.4900
38.7500,710.9800
38.7600,700.7425
38.7700,669.1625
38.7800,669.7475
38.7900,639.2050
38.8000,608.9700
38.8100,591.2925
38.8200,580.7825
38.8300,543.1525
38.8400,576.8225
38.8500,543.2050
38.8600,610.4750
38.8700,582.9850
38.8800,570.8200
38.8900,588.3450
38.9000,654.1625
38.9100,620.3100
38.9200,659.3800
38.9300,629.7975
38.9400,718.0650
38.9500,757.1100
38.9600,820.8450
38.9700,890.5075
38.9800,869.3250
38.9900,966.8450
39.0000,1128.3425
39.0100,1140.3025
39.0200,1161.2050
39.0300,1239.0075
39.0400,1346.4850
39.0500,1426.1875
39.0600,1445.4150
39.0700,1507.0325
39.0800,1519.3650
39.0900,1577.2650
39.1000,1706.8175
39.1100,1783.2025
39.1200,1696.7700
39.1300,1722.7300
39.1400,1816.7600
39.1500,1880.6850
39.1600,1775.7125
39.1700,1820.2700
39.1800,1844.6325
39.1900,1801.7825
39.2000,1677.0600
39.2100,1654.3700
39.2200,1602.5750
39.2300,1519.0900
39.2400,1474.2225
39.2500,1425.3100
39.2600,1366.4100
39.2700,1202.3225
39.2800,1165.4950
39.2900,1169.2750
39.3000,1208.5925
39.3100,1091.7075
39.3200,1014.4150
39.3300,1086.6450
39.3400,1084.8275
39.3500,1033.0500
39.3600,1082.8250
39.3700,1030.9275
39.3800,1026.2850
39.3900,1000.1225
39.4000,984.8775
39.4100,968.6075
39.4200,1013.7525
39.4300,1034.7050
39.4400,966.1400
39.4500,936.1125
39.4600,1015.4950
39.4700,1032.5300
39.4800,1053.8450
39.4900,1071.3075
39.5000,1061.6300
39.5100,1030.7625
39.5200,1003.2950
39.5300,1026.2750
39.5400,1085.4300
39.5500,1093.3325
39.5600,1104.9850
39.5700,1147.4200
39.5800,1086.4300
39.5900,1073.7600
39.6000,1026.8600
39.6100,1049.0250
39.6200,1053.3325
39.6300,1079.4175
39.6400,1051.4750
39.6500,1043.7725
39.6600,985.4950
39.6700,1048.9100
39.6800,1111.9775
39.6900,1143.0850
39.7000,1126.4825
39.7100,1186.7225
39.7200,1153.4775
39.7300,1207.0875
39.7400,1193.6675
39.7500,1279.0600
39.7600,1324.9125
39.7700,1373.0300
39.7800,1402.9325
39.7900,1363.7000
39.8000,1282.2450
39.8100,1272.8600
39.8200,1364.7950
39.8300,1354.2950
39.8400,1290.0650
39.8500,1357.0025
39.8600,1352.9000
39.8700,1281.6550
39.8800,1244.3900
39.8900,1183.1300
39.9000,1099.4550
39.9100,941.8575
39.9200,831.5475
39.9300,839.3475
39.9400,840.5000
39.9500,789.0400
39.9600,729.0775
39.9700,720.0000
39.9800,683.2775
39.9900,673.8450
40.0000,639.4850
40.0100,574.1425
40.0200,532.3525
40.0300,515.4100
40.0400,530.2075
40.0500,491.1800
40.0600,452.4425
40.0700,441.0550
40.0800,468.0400
40.0900,462.1250
40.1000,443.2000
40.1100,459.5850
40.1200,449.3550
40.1300,399.1725
40.1400,395.5825
40.1500,418.9825
40.1600,437.2700
40.1700,453.9275
40.1800,406.5650
40.1900,399.4475
40.2000,461.1450
40.2100,492.7750
40.2200,463.3650
40.2300,434.4825
40.2400,432.7700
40.2500,425.0275
40.2600,401.1975
40.2700,366.2525
40.2800,357.2375
40.2900,373.2325
40.3000,437.3600
40.3100,427.9450
40.3200,406.8050
40.3300,422.6025
40.3400,404.6625
40.3500,427.4850
40.3600,381.1500
40.3700,402.9325
40.3800,415.4850
40.3900,465.9950
40.4000,457.4975
40.4100,436.9150
40.4200,466.1450
40.4300,432.3500
40.4400,431.5250
40.4500,411.5075
40.4600,439.3800
40.4700,443.9425
40.4800,443.3325
40.4900,446.0525
40.5000,438.5125
40.5100,461.1100
40.5200,491.0925
40.5300,507.5150
40.5400,504.5800
40.5500,470.8375
40.5600,476.8625
40.5700,515.1500
40.5800,566.5650
40.5900,519.9700
40.6000,506.6675
40.6100,514.7550
40.6200,519.3600
40.6300,589.9875
40.6400,569.0100
40.6500,586.8775
40.6600,579.9050
40.6700,547.1450
40.6800,590.9550
40.6900,630.1325
40.7000,625.9550
40.7100,658.1175
40.7200,672.0150
40.7300,689.3650
40.7400,725.3700
40.7500,770.6825
40.7600,859.9750
40.7700,962.5775
40.7800,1015.2750
40.7900,1135.0450
40.8000,1134.0975
40.8100,1201.0300
40.8200,1334.1150
40.8300,1395.1550
40.8400,1509.3275
40.8500,1602.8625
40.8600,1699.3775
40.8700,1709.4250
40.8800,1730.4450
40.8900,1752.5075
40.9000,1793.5975
40.9100,1861.3250
40.9200,1989.9300
40.9300,2091.0650
40.9400,2107.3700
40.9500,2046.2200
40.9600,2082.5225
40.9700,2267.2350
40.9800,2232.0475
40.9900,2154.9750
41.0000,2108.5825
41.0100,2212.4975
41.0200,2253.7900
41.0300,2204.4200
41.0400,2033.3800
41.0500,1843.9300
41.0600,1623.4900
41.0700,1466.5500
41.0800,1374.2075
41.0900,1333.2625
41.1000,1303.2800
41.1100,1216.1725
41.1200,1172.5750
41.1300,1112.2200
41.1400,1068.1675
41.1500,925.3825
41.1600,829.7550
41.1700,813.3325
41.1800,730.6775
41.1900,634.3975
41.2000,587.5425
41.2100,572.2675
41.2200,513.3450
41.2300,530.1175
41.2400,542.5725
41.2500,553.6100
41.2600,579.7725
41.2700,481.4825
41.2800,424.3650
41.2900,426.9125
41.3000,450.4775
41.3100,495.0325
41.3200,468.3300
41.3300,400.4825
41.3400,385.8850
41.3500,409.6175
41.3600,434.5025
41.3700,409.4450
41.3800,387.2800
41.3900,418.9250
41.4000,430.0000
41.4100,399.5375
41.4200,417.9025
41.4300,426.6675
41.4400,381.0775
41.4500,455.2450
41.4600,483.3325
41.4700,432.7950
41.4800,398.9925
41.4900,403.4250
41.5000,411.7100
41.5100,388.1400
41.5200,392.5875
41.5300,414.2750
41.5400,425.0275
41.5500,454.2950
41.5600,468.3525
41.5700,454.9525
41.5800,467.5425
41.5900,448.2925
41.6000,432.4925
41.6100,470.0050
41.6200,520.8075
41.6300,488.3975
41.6400,475.8275
41.6500,516.5500
41.6600,544.9450
41.6700,512.6675
41.6800,467.6700
41.6900,498.9125
41.7000,538.1650
41.7100,519.3725
41.7200,510.0000
41.7300,482.7475
41.7400,475.8100
41.7500,506.3525
41.7600,506.7800
41.7700,486.0425
41.7800,462.7225
41.7900,473.9300
41.8000,487.3925
41.8100,494.9250
41.8200,476.9825
41.8300,462.6225
41.8400,477.1975
41.8500,478.4225
41.8600,427.6025
41.8700,385.4875
41.8800,425.6550
41.8900,409.0675
41.9000,381.9925
41.9100,408.4375
41.9200,385.8125
41.9300,383.0950
41.9400,391.5425
41.9500,376.2775
41.9600,384.6075
41.9700,377.8375
41.9800,404.9350
41.9900,436.0975
42.0000,419.0625
42.0100,434.2525
42.0200,426.3700
42.0300,420.0000
42.0400,388.5425
42.0500,386.3375
42.0600,373.0875
42.0700,378.7375
42.0800,419.5200
42.0900,428.5125
42.1000,404.9875
42.1100,415.9225
42.1200,406.4975
42.1300,431.2425
42.1400,412.1150
42.1500,368.8050
42.1600,363.8600
42.1700,378.6450
42.1800,424.0325
42.1900,418.4700
42.2000,402.8300
42.2100,416.7200
42.2200,435.2675
42.2300,411.3800
42.2400,400.0000
42.2500,416.6700
42.2600,420.9550
42.2700,403.3575
42.2800,408.5450
42.2900,413.3325
42.3000,422.8225
42.3100,426.6675
42.3200,445.6150
42.3300,410.7325
42.3400,398.0625
42.3500,437.8100
42.3600,460.4175
42.3700,456.2550
42.3800,441.5450
42.3900,455.5150
42.4000,493.9375
42.4100,516.0750
42.4200,505.8975
42.4300,511.7425
42.4400,565.9525
42.4500,558.5250
42.4600,549.0100
42.4700,578.0975
42.4800,636.7950
42.4900,642.6400
42.5000,683.3900
42.5100,705.6675
42.5200,704.3350
42.5300,733.6350
42.5400,772.2850
42.5500,739.1150
42.5600,726.9775
42.5700,783.4450
42.5800,783.4475
42.5900,801.1750
42.6000,845.7900
42.6100,922.5475
42.6200,919.9075
42.6300,841.9025
42.6400,804.0875
42.6500,850.8075
42.6600,877.9500
42.6700,891.5300
42.6800,933.5325
42.6900,876.3225
42.7000,836.4325
42.7100,863.2200
42.7200,904.2325
42.7300,918.9625
42.7400,940.6425
42.7500,885.8275
42.7600,810.8650
42.7700,844.9200
42.7800,888.2925
42.7900,892.0975
42.8000,858.0375
42.8100,815.9575
42.8200,766.8600
42.8300,770.5000
42.8400,739.0300
42.8500,688.1600
42.8600,675.6050
42.8700,653.9575
42.8800,620.6425
42.8900,628.1400
42.9000,625.3375
42.9100,581.5125
42.9200,547.4975
42.9300,524.1775
42.9400,509.8900
42.9500,551.8075
42.9600,544.0150
42.9700,539.0150
42.9800,547.8375
42.9900,504.9975
43.0000,458.6025
43.0100,453.4075
43.0200,461.1575
43.0300,465.5775
43.0400,444.2525
43.0500,433.3325
43.0600,424.3800
43.0700,437.8900
43.0800,446.6675
43.0900,448.9000
43.1000,447.7700
43.1100,471.1900
43.1200,467.7400
43.1300,464.4525
43.1400,464.4425
43.1500,501.1175
43.1600,497.7900
43.1700,477.7900
43.1800,466.6800
43.1900,458.9025
43.2000,443.3825
43.2100,441.0925
43.2200,430.0700
43.2300,432.1700
43.2400,447.7025
43.2500,453.3325
43.2600,479.7800
43.2700,504.3450
43.2800,476.9900
43.2900,431.4150
43.3000,425.4550
43.3100,454.1500
43.3200,457.8900
43.3300,457.7175
43.3400,477.5250
43.3500,512.9325
43.3600,489.4850
43.3700,470.0000
43.3800,459.0800
43.3900,468.6075
43.4000,487.5700
43.4100,517.3000
43.4200,556.1250
43.4300,565.6500
43.4400,541.5950
43.4500,532.1725
43.4600,596.2775
43.4700,630.0000
43.4800,610.4950
43.4900,595.6700
43.5000,591.1700
43.5100,637.5675
43.5200,641.7275
43.5300,619.2050
43.5400,619.8050
43.5500,644.8900
43.5600,682.5125
43.5700,649.3175
43.5800,638.3875
43.5900,663.8575
43.6000,681.9225
43.6100,697.3950
43.6200,716.1975
43.6300,712.6225
43.6400,760.1850
43.6500,811.3925
43.6600,782.7200
43.6700,762.1350
43.6800,767.6025
43.6900,838.2425
43.7000,880.9275
43.7100,911.0150
43.7200,992.6250
43.7300,987.4775
43.7400,990.9525
43.7500,1015.1575
43.7600,1066.6675
43.7700,1148.4425
43.7800,1143.9950
43.7900,1114.8675
43.8000,1156.5250
43.8100,1221.3700
43.8200,1243.3325
43.8300,1230.6750
43.8400,1248.6325
43.8500,1309.6800
43.8600,1353.5075
43.8700,1319.1600
43.8800,1318.5550
43.8900,1316.5325
43.9000,1302.4700
43.9100,1297.9025
43.9200,1288.2850
43.9300,1314.7400
43.9400,1341.7025
43.9500,1240.0425
43.9600,1182.9350
43.9700,1192.9300
43.9800,1104.8875
43.9900,1027.0725
44.0000,1065.4000
44.0100,1067.5300
44.0200,970.9775
44.0300,919.1775
44.0400,920.8200
44.0500,966.9050
44.0600,970.5275
44.0700,942.1650
44.0800,947.8225
44.0900,971.1450
44.1000,920.0600
44.1100,856.4850
44.1200,879.2125
44.1300,880.6500
44.1400,901.6975
44.1500,894.5075
44.1600,886.9550
44.1700,911.8375
44.1800,943.8775
44.1900,921.7700
44.2000,877.4375
44.2100,918.6750
44.2200,924.6600
44.2300,902.5725
44.2400,947.0350
44.2500,935.7975
44.2600,903.8750
44.2700,912.2425
44.2800,950.5825
44.2900,1012.7825
44.3000,997.2500
44.3100,970.0000
44.3200,939.5100
44.3300,887.5025
44.3400,895.0800
44.3500,905.2225
44.3600,867.5775
44.3700,858.8175
44.3800,842.3850
44.3900,782.1850
44.4000,735.1500
44.4100,743.5225
44.4200,714.3025
44.4300,664.4925
44.4400,670.1425
44.4500,707.4850
44.4600,709.2550
44.4700,734.1650
44.4800,742.6100
44.4900,707.2475
44.5000,683.9850
44.5100,675.9925
44.5200,677.3375
44.5300,702.0075
44.5400,686.6800
44.5500,676.6550
44.5600,675.3500
44.5700,612.1575
44.5800,575.3275
44.5900,570.6925
44.6000,600.4975
44.6100,609.4125
44.6200,663.5850
44.6300,684.8250
44.6400,634.2875
44.6500,604.0525
44.6600,611.8850
44.6700,633.8575
44.6800,659.1575
44.6900,640.3525
44.7000,580.4975
44.7100,555.3075
44.7200,560.6100
44.7300,537.7150
44.7400,502.2775
44.7500,505.7425
44.7600,510.7675
44.7700,518.4550
44.7800,497.2175
44.7900,439.3925
44.8000,425.0950
44.8100,452.9225
44.8200,494.0700
44.8300,474.2150
44.8400,425.1675
44.8500,458.8225
44.8600,464.0600
44.8700,421.8825
44.8800,402.7700
44.8900,388.3175
44.9000,401.4025
44.9100,422.5000
44.9200,415.0100
44.9300,424.1375
44.9400,465.7650
44.9500,469.2225
44.9600,437.2975
44.9700,433.0100
44.9800,455.4725
44.9900,470.5325
45.0000,486.8525
45.0100,483.1600
45.0200,482.9750
45.0300,497.7075
45.0400,503.3325
45.0500,487.9425
45.0600,509.3500
45.0700,521.8075
45.0800,547.8875
45.0900,596.3525
45.1000,598.0000
45.1100,573.2600
45.1200,542.2800
45.1300,536.2300
45.1400,543.3325
45.1500,520.4175
45.1600,491.8850
45.1700,450.9175
45.1800,443.8150
45.1900,469.9950
45.2000,495.2200
45.2100,481.9525
45.2200,512.7275
45.2300,531.0175
45.2400,492.0050
45.2500,435.4225
45.2600,416.1375
45.2700,432.7975
45.2800,453.2400
45.2900,442.5450
45.3000,394.5625
45.3100,398.3075
45.3200,399.2575
45.3300,387.1025
45.3400,393.7650
45.3500,411.7200
45.3600,427.0925
45.3700,433.7575
45.3800,429.1575
45.3900,421.4575
45.4000,429.3725
45.4100,423.5525
45.4200,443.2825
45.4300,485.3725
45.4400,473.8325
45.4500,468.2750
45.4600,491.1975
45.4700,500.0000
45.4800,514.9100
45.4900,515.4925
45.5000,488.0575
45.5100,510.5250
45.5200,545.5750
45.5300,537.0025
45.5400,508.1125
45.5500,530.4150
45.5600,567.4100
45.5700,560.3725
45.5800,553.7000
45.5900,540.0275
45.6000,535.9025
45.6100,585.7900
45.6200,599.7100
45.6300,574.1175
45.6400,557.4575
45.6500,551.8400
45.6600,536.7800
45.6700,532.5225
45.6800,556.5300
45.6900,560.8250
45.7000,577.1750
45.7100,624.1550
45.7200,666.8100
45.7300,710.7825
45.7400,727.8475
45.7500,745.2600
45.7600,810.8075
45.7700,875.5450
45.7800,905.7825
45.7900,960.7050
45.8000,1041.8750
45.8100,1094.8600
45.8200,1117.2725
45.8300,1152.4000
45.8400,1261.9875
45.8500,1340.5900
45.8600,1308.6000
45.8700,1303.8375
45.8800,1348.3875
45.8900,1375.7100
45.9000,1399.6000
45.9100,1487.3875
45.9200,1486.8275
45.9300,1429.7250
45.9400,1473.5275
45.9500,1516.9350
45.9600,1475.0075
45.9700,1420.4800
45.9800,1428.2325
45.9900,1434.0950
46.0000,1380.2650
46.0100,1336.1600
46.0200,1303.1200
46.0300,1235.2325
46.0400,1175.1950
46.0500,1135.2100
46.0600,1064.8475
46.0700,1032.5000
46.0800,1013.0000
46.0900,963.4875
46.1000,950.4600
46.1100,848.0575
46.1200,731.9825
46.1300,699.1100
46.1400,695.5500
46.1500,682.0275
46.1600,656.2375
46.1700,646.4550
46.1800,652.1925
46.1900,628.1325
46.2000,578.7700
46.2100,552.9275
46.2200,513.1025
46.2300,486.8650
46.2400,491.7650
46.2500,521.5400
46.2600,532.5750
46.2700,483.0325
46.2800,414.8175
46.2900,392.1225
46.3000,417.5650
46.3100,454.3975
46.3200,436.4975
46.3300,406.8400
46.3400,415.2550
46.3500,398.9950
46.3600,409.7375
46.3700,441.9100
46.3800,422.2125
46.3900,403.4900
46.4000,411.9000
46.4100,413.1800
46.4200,411.7425
46.4300,425.5175
46.4400,441.8850
46.4500,453.6200
46.4600,463.4750
46.4700,454.5150
46.4800,467.6175
46.4900,507.3325
46.5000,502.5475
46.5100,519.6825
46.5200,558.5225
46.5300,573.7050
46.5400,652.4275
46.5500,663.1575
46.5600,615.0575
46.5700,659.7600
46.5800,712.0575
46.5900,723.3325
46.6000,723.3325
46.6100,714.7375
46.6200,744.4575
46.6300,807.4650
46.6400,819.6100
46.6500,820.3800
46.6600,826.4800
46.6700,809.7300
46.6800,851.3200
46.6900,872.6475
46.7000,853.5000
46.7100,842.9275
46.7200,838.6075
46.7300,855.1150
46.7400,824.2225
46.7500,783.1900
46.7600,754.5500
46.7700,711.2325
46.7800,708.6875
46.7900,743.6450
46.8000,741.3375
46.8100,704.6825
46.8200,690.0550
46.8300,676.4025
46.8400,627.8525
46.8500,579.7575
46.8600,546.4350
46.8700,541.8200
46.8800,541.5200
46.8900,506.3925
46.9000,503.5550
46.9100,530.0700
46.9200,531.6175
46.9300,501.4400
46.9400,468.2625
46.9500,460.0000
46.9600,478.4625
46.9700,483.2500
46.9800,458.2675
46.9900,444.9925
47.0000,438.3125
47.0100,403.2250
47.0200,381.6900
47.0300,395.0125
47.0400,431.7175
47.0500,439.9775
47.0600,408.3300
47.0700,393.3350
47.0800,389.9975
47.0900,414.9625
47.1000,435.0050
47.1100,405.0875
47.1200,375.0050
47.1300,394.9050
47.1400,433.2500
47.1500,421.8275
47.1600,396.6450
47.1700,414.8950
47.1800,430.0000
47.1900,449.8325
47.2000,445.2250
47.2100,424.9525
47.2200,415.1550
47.2300,398.3525
47.2400,411.4925
47.2500,416.7900
47.2600,411.6025
47.2700,431.4625
47.2800,445.0225
47.2900,400.6425
47.3000,351.7450
47.3100,358.1450
47.3200,389.6650
47.3300,390.3475
47.3400,370.0000
47.3500,373.2700
47.3600,402.8175
47.3700,425.1000
47.3800,393.8825
47.3900,386.2425
47.4000,372.4325
47.4100,333.4075
47.4200,338.1400
47.4300,353.1750
47.4400,364.8775
47.4500,363.5000
47.4600,372.9050
47.4700,394.8675
47.4800,391.8900
47.4900,371.9875
47.5000,377.8175
47.5100,388.5725
47.5200,363.8250
47.5300,328.8850
47.5400,331.0025
47.5500,363.0200
47.5600,402.3750
47.5700,401.0850
47.5800,376.3350
47.5900,402.7700
47.6000,395.8600
47.6100,376.4325
47.6200,415.4800
47.6300,459.6375
47.6400,453.9475
47.6500,439.8750
47.6600,459.3650
47.6700,471.8600
47.6800,463.4650
47.6900,477.6025
47.7000,512.6600
47.7100,514.0175
47.7200,511.0425
47.7300,553.8025
47.7400,581.7375
47.7500,591.1600
47.7600,611.3000
47.7700,621.5925
47.7800,628.1075
47.7900,647.6450
47.8000,676.0475
47.8100,696.3525
47.8200,720.7925
47.8300,725.7225
47.8400,725.8525
47.8500,760.7600
47.8600,762.5825
47.8700,763.9025
47.8800,769.2725
47.8900,742.0975
47.9000,725.4375
47.9100,711.9325
47.9200,708.2450
47.9300,724.1875
47.9400,738.4250
47.9500,700.4525
47.9600,645.8375
47.9700,626.8550
47.9800,606.0450
47.9900,583.5250
48.0000,594.1275
48.0100,588.0375
48.0200,553.9275
48.0300,537.0650
48.0400,522.1700
48.0500,519.5925
48.0600,496.9500
48.0700,469.5850
48.0800,481.3525
48.0900,489.7900
48.1000,473.0500
48.1100,453.1175
48.1200,466.0175
48.1300,450.1900
48.1400,421.5575
48.1500,418.6675
48.1600,410.2250
48.1700,419.0950
48.1800,405.3850
48.1900,374.8850
48.2000,390.6250
48.2100,422.1650
48.2200,444.6475
48.2300,436.0675
48.2400,418.4525
48.2500,424.3975
48.2600,441.0600
48.2700,459.2675
48.2800,439.1300
48.2900,411.0475
48.3000,430.7925
48.3100,432.5475
48.3200,424.6200
48.3300,417.6875
48.3400,417.1750
48.3500,444.0925
48.3600,462.8125
48.3700,442.3625
48.3800,426.8800
48.3900,466.6025
48.4000,471.6075
48.4100,482.1675
48.4200,536.8400
48.4300,529.1275
48.4400,513.4875
48.4500,534.8625
48.4600,553.4675
48.4700,585.5450
48.4800,574.0650
48.4900,552.4825
48.5000,557.2375
48.5100,546.9550
48.5200,532.6800
48.5300,529.1275
48.5400,559.7625
48.5500,583.3325
48.5600,598.5175
48.5700,642.4675
48.5800,668.7825
48.5900,637.5625
48.6000,597.5775
48.6100,613.9225
48.6200,664.8275
48.6300,670.0300
48.6400,622.7925
48.6500,606.6175
48.6600,610.0575
48.6700,573.4000
48.6800,533.7275
48.6900,516.0300
48.7000,521.8275
48.7100,523.0100
48.7200,490.5525
48.7300,458.6975
48.7400,477.8425
48.7500,468.3100
48.7600,442.4925
48.7700,445.3375
48.7800,449.5025
48.7900,420.1800
48.8000,402.9950
48.8100,387.2025
48.8200,391.7650
48.8300,411.7100
48.8400,412.7650
48.8500,414.2575
48.8600,392.6400
48.8700,358.2175
48.8800,323.0725
48.8900,370.1650
48.9000,389.9250
48.9100,373.3325
48.9200,364.4050
48.9300,368.2075
48.9400,395.5850
48.9500,408.1525
48.9600,410.0000
48.9700,417.4200
48.9800,425.1825
48.9900,411.4750
49.0000,412.9650
49.0100,445.1800
49.0200,460.0000
49.0300,455.5625
49.0400,461.8275
49.0500,455.9800
49.0600,458.0600
49.0700,487.4300
49.0800,493.2775
49.0900,514.4225
49.1000,530.3150
49.1100,510.9300
49.1200,489.1375
49.1300,547.1725
49.1400,567.9425
49.1500,545.8800
49.1600,569.4925
49.1700,598.8100
49.1800,602.6625
49.1900,588.9325
49.2000,593.5950
49.2100,611.0625
49.2200,607.8800
49.2300,573.2500
49.2400,565.2750
49.2500,588.9475
49.2600,580.4100
49.2700,554.7600
49.2800,545.6425
49.2900,605.0125
49.3000,622.2950
49.3100,589.5825
49.3200,602.0725
49.3300,614.7900
49.3400,600.6600
49.3500,595.9975
49.3600,612.3050
49.3700,609.5725
49.3800,606.0725
49.3900,595.2150
49.4000,586.0800
49.4100,594.0650
49.4200,632.6075
49.4300,615.6775
49.4400,578.2475
49.4500,588.9925
49.4600,587.6725
49.4700,599.1150
49.4800,589.3325
49.4900,585.4375
49.5000,594.1250
49.5100,593.5275
49.5200,637.3000
49.5300,611.0075
49.5400,548.1075
49.5500,570.1525
49.5600,585.1575
49.5700,538.3625
49.5800,513.9150
49.5900,543.8500
49.6000,538.9750
49.6100,534.3525
49.6200,561.9400
49.6300,584.8025
49.6400,610.0300
49.6500,583.2300
49.6600,511.3900
49.6700,499.5450
49.6800,513.8075
49.6900,491.4175
49.7000,478.0975
49.7100,486.1925
49.7200,502.3575
49.7300,513.8400
49.7400,477.6300
49.7500,492.8025
49.7600,509.0875
49.7700,490.0000
49.7800,465.8075
49.7900,439.0225
49.8000,465.1500
49.8100,468.6850
49.8200,432.8975
49.8300,451.7275
49.8400,477.2300
49.8500,469.9275
49.8600,469.1575
49.8700,471.2525
49.8800,509.9125
49.8900,499.2700
49.9000,475.1550
49.9100,488.0800
49.9200,461.7300
49.9300,417.6825
49.9400,421.2975
49.9500,438.0775
49.9600,438.5900
49.9700,397.1825
49.9800,343.3325
49.9900,343.3325
50.0000,343.3325
